Data from 191228_Ar05mT_500W_ALA10_8000ms_Subt2_02-22-25-500.txt Node
Date: Sun Dec 29 02:22:25 KST 2019
User: L102
Spectrometer: HR4D2517
Trigger mode: 4
Integration Time (sec): 8.000000E0
Scans to average: 1
Electric dark correction enabled: true
Nonlinearity correction enabled: true
Boxcar width: 0
XAxis mode: Wavelengths
Number of Pixels in Spectrum: 3648
>>>>>Begin Spectral Data<<<<<
597.141	2.32
597.272	2.32
597.404	2.32
597.536	2.03
597.668	7.73
597.8	-3.69
597.932	10.95
598.064	2.91
598.196	-2.27
598.328	1.52
598.46	-8.25
598.591	1.81
598.723	2.03
598.855	7.03
598.987	-5.29
599.119	-0.97
599.251	-2.78
599.383	-3.08
599.514	2.31
599.646	11.92
599.778	6.33
599.91	8.15
600.042	3.2
600.173	6.42
600.305	11.4
600.437	12.54
600.569	11.96
600.701	15.75
600.832	20.25
600.964	8.72
601.096	24.39
601.228	18.11
601.359	13.53
601.491	3.12
601.623	11.3
601.755	19.16
601.886	14.06
602.018	13.9
602.15	36.6
602.281	38.07
602.413	35.45
602.545	48.91
602.677	49.83
602.808	88.38
602.94	128.22
603.072	121.79
603.203	55.07
603.335	21.68
603.467	6.74
603.598	25.73
603.73	22.45
603.862	35.13
603.993	72.48
604.125	69.48
604.256	57.13
604.388	28.44
604.52	0.92
604.651	2.02
604.783	-1.98
604.915	20.88
605.046	26.61
605.178	14.44
605.309	9.91
605.441	24.1
605.572	17.91
605.704	22.23
605.836	14.55
605.967	14.57
606.099	-7.88
606.23	8.5
606.362	13.62
606.493	9.2
606.625	-2.07
606.756	7.13
606.888	6.04
607.019	-5.99
607.151	1.02
607.282	13.11
607.414	7.7
607.545	-3.57
607.677	2.42
607.808	7.75
607.94	8.76
608.071	2.41
608.203	1.73
608.334	5.22
608.466	17.59
608.597	-0.88
608.728	12.61
608.86	12.91
608.991	6.43
609.123	15.13
609.254	9.61
609.386	11.4
609.517	11.06
609.648	28.89
609.78	21.63
609.911	20.26
610.043	19.91
610.174	27.99
610.305	35.1
610.437	29.5
610.568	8.08
610.699	7.88
610.831	1.53
610.962	2.12
611.093	5.51
611.225	3.89
611.356	15.44
611.487	7.14
611.619	8.37
611.75	2.12
611.881	0.72
612.013	12.7
612.144	4.11
612.275	-2.76
612.406	12.01
612.538	7.35
612.669	11.39
612.8	1.12
612.931	4.53
613.063	2.23
613.194	5.62
613.325	5.41
613.456	21.12
613.588	6.64
613.719	0.32
613.85	2.62
613.981	6.22
614.112	22.67
614.244	32.69
614.375	39.12
614.506	29.11
614.637	1.42
614.768	13.95
614.9	19.69
615.031	12.24
615.162	11.13
615.293	15.76
615.424	13.46
615.555	5.03
615.686	5.42
615.818	15.9
615.949	5
616.08	8.75
616.211	13.53
616.342	21.13
616.473	14.8
616.604	19.47
616.735	30.61
616.866	35.32
616.998	40.63
617.129	32.78
617.26	28.83
617.391	5.4
617.522	12.53
617.653	23.64
617.784	3.32
617.915	-4.56
618.046	0.52
618.177	0.52
618.308	6.02
618.439	3.31
618.57	6.88
618.701	4.63
618.832	2.83
618.963	-6.37
619.094	-5.86
619.225	2.72
619.356	-1.98
619.487	-6.25
619.618	6.89
619.749	15.71
619.88	6.21
620.011	-3.37
620.142	13.59
620.273	4.52
620.404	9.22
620.535	7.1
620.665	11.41
620.796	10.52
620.927	28.65
621.058	22.89
621.189	26.43
621.32	26.76
621.451	21.55
621.582	11.65
621.713	22.63
621.844	-10.49
621.974	4.03
622.105	13.7
622.236	-1.57
622.367	-2.68
622.498	4.93
622.629	0.22
622.759	-2.77
622.89	1.83
623.021	0.42
623.152	-3.27
623.283	5.61
623.414	1.83
623.544	-6.87
623.675	-2.76
623.806	4.4
623.937	2.22
624.067	-1.78
624.198	6.2
624.329	12
624.46	1.72
624.59	11.61
624.721	10.98
624.852	-1.07
624.983	6.91
625.113	-3.28
625.244	2.5
625.375	3.63
625.506	6.43
625.636	1.12
625.767	1.32
625.898	7.29
626.028	0.52
626.159	-0.38
626.29	-4.85
626.42	12.51
626.551	3.33
626.682	6.12
626.812	2.11
626.943	2.82
627.074	0.92
627.204	-3.98
627.335	5.91
627.466	6.27
627.596	10.54
627.727	-0.38
627.857	-9.85
627.988	5.92
628.119	6.22
628.249	2.72
628.38	12.45
628.51	-2.17
628.641	-3.17
628.772	11.24
628.902	2.71
629.033	1.12
629.163	9.23
629.294	27.03
629.424	34.61
629.555	42.26
629.685	19.63
629.816	0.52
629.946	-0.18
630.077	13.94
630.207	7.94
630.338	29.37
630.468	29.65
630.599	36.02
630.729	10.24
630.86	9.64
630.99	12.82
631.121	9.61
631.251	3.82
631.382	-7.59
631.512	0.72
631.643	12.74
631.773	6.43
631.904	-2.97
632.034	-7.44
632.164	0.42
632.295	-3.08
632.425	1.42
632.556	-6.32
632.686	-0.28
632.816	3.53
632.947	3.73
633.077	4.8
633.208	9.91
633.338	-1.48
633.468	-0.28
633.599	6.38
633.729	8.73
633.859	-9.49
633.99	6.74
634.12	-1.57
634.25	8.13
634.381	7.23
634.511	1.42
634.641	8.31
634.772	-7.65
634.902	4.12
635.032	5.22
635.163	-0.58
635.293	4.61
635.423	3.32
635.553	6.12
635.684	3.11
635.814	5
635.944	9.52
636.074	6.62
636.205	4.52
636.335	10.14
636.465	14.16
636.595	6.82
636.726	12
636.856	23.83
636.986	-7.88
637.116	12.15
637.246	0.62
637.377	4.7
637.507	10.92
637.637	6.42
637.767	4.71
637.897	8.36
638.027	13.02
638.158	15.74
638.288	26.84
638.418	16.67
638.548	-6.49
638.678	4.02
638.808	12.77
638.938	-6.63
639.069	16.08
639.199	-2.28
639.329	-5.07
639.459	4.84
639.589	-8.58
639.719	0.42
639.849	6.62
639.979	-0.88
640.109	7.13
640.239	9.15
640.369	0.22
640.5	5.89
640.63	-3.18
640.76	19.92
640.89	13.02
641.02	21.24
641.15	25.81
641.28	48.29
641.41	54.94
641.54	59.68
641.67	28.29
641.8	10.02
641.93	4.01
642.06	3.52
642.19	2.72
642.32	4.01
642.45	1.81
642.58	8.9
642.71	4.22
642.84	5.63
642.97	1.92
643.1	2.51
643.229	1.82
643.359	-4.68
643.489	2.51
643.619	5.98
643.749	5.92
643.879	8.43
644.009	-0.28
644.139	13.73
644.269	-1.38
644.399	2.92
644.529	8.39
644.658	3.21
644.788	-0.28
644.918	10.72
645.048	6.72
645.178	-2.87
645.308	3.21
645.438	5.32
645.567	14.53
645.697	13.44
645.827	10.11
645.957	9.6
646.087	9.6
646.216	21.18
646.346	14.51
646.476	17.14
646.606	17.17
646.736	7.92
646.865	3.02
646.995	12.21
647.125	0.82
647.255	-0.87
647.384	0.82
647.514	-1.18
647.644	6.69
647.774	13.33
647.903	15.19
648.033	-0.88
648.163	10.5
648.293	-0.97
648.422	-4.28
648.552	-4.58
648.682	-1.67
648.811	-4.76
648.941	-0.88
649.071	1.02
649.2	8.36
649.33	6.53
649.46	0.42
649.589	6.82
649.719	3.72
649.849	8.57
649.978	-4.08
650.108	0.72
650.238	9.19
650.367	1.22
650.497	0.72
650.626	-1.18
650.756	11.85
650.886	5.22
651.015	0.92
651.145	4.91
651.274	12.35
651.404	11.77
651.534	4.92
651.663	6.82
651.793	2.51
651.922	7.27
652.052	-4.37
652.181	3.12
652.311	7.98
652.44	3.52
652.57	-0.18
652.699	-4.88
652.829	2.32
652.958	-1.97
653.088	9.65
653.217	13.55
653.347	18.63
653.476	18.62
653.606	5.32
653.735	18.66
653.865	-4.95
653.994	0.52
654.124	10.04
654.253	3.82
654.383	14.9
654.512	10.29
654.642	1.63
654.771	-7.79
654.9	-0.97
655.03	-2.17
655.159	-3.38
655.289	11.71
655.418	4.59
655.547	3.9
655.677	6.8
655.806	10.98
655.936	15.21
656.065	18.66
656.194	10.1
656.324	6.24
656.453	6.22
656.582	0.82
656.712	-1.18
656.841	6.93
656.97	12.8
657.1	8.66
657.229	-5.88
657.358	-2.78
657.488	8.19
657.617	-9.36
657.746	1.52
657.876	1.42
658.005	-0.08
658.134	-3.17
658.263	-6.87
658.393	2.22
658.522	-0.47
658.651	10.82
658.78	1.02
658.91	-4.27
659.039	11.02
659.168	13.16
659.297	11.43
659.427	9.93
659.556	11.17
659.685	4.32
659.814	13.75
659.943	5.72
660.073	31.16
660.202	24.91
660.331	30.37
660.46	31.21
660.589	20.68
660.719	4.7
660.848	10.75
660.977	-1.58
661.106	-11.78
661.235	10.57
661.364	7.62
661.493	3.82
661.623	5.72
661.752	3.6
661.881	-4.16
662.01	5.01
662.139	-4.26
662.268	5.02
662.397	-3.98
662.526	2.72
662.655	-2.07
662.784	1.61
662.913	0.12
663.043	-3.57
663.172	7.96
663.301	0.22
663.43	-10.36
663.559	3.93
663.688	0.02
663.817	5.9
663.946	14.33
664.075	-0.98
664.204	0.42
664.333	-1.48
664.462	3.21
664.591	-1.78
664.72	-0.37
664.849	3.11
664.978	14.8
665.107	10.31
665.236	7.8
665.365	5.89
665.494	8.92
665.623	22.98
665.751	20.5
665.88	22.01
666.009	16.84
666.138	19.52
666.267	27.93
666.396	9.22
666.525	7.52
666.654	5.83
666.783	26.46
666.912	8.19
667.041	11.71
667.169	17.89
667.298	12.07
667.427	15.53
667.556	22.96
667.685	17.43
667.814	7.61
667.943	6.21
668.071	-0.28
668.2	8.24
668.329	14.19
668.458	5.3
668.587	4.93
668.716	7.93
668.844	8.17
668.973	0.92
669.102	8.42
669.231	12
669.359	13.29
669.488	15.88
669.617	18.5
669.746	22.56
669.875	18.17
670.003	8.53
670.132	1.82
670.261	7.73
670.389	-1.28
670.518	2.81
670.647	4.52
670.776	-9.36
670.904	-8.97
671.033	5.3
671.162	12.43
671.29	6.11
671.419	19.8
671.548	5.43
671.676	3.23
671.805	17.55
671.934	7.68
672.062	18.75
672.191	-1.38
672.32	11.61
672.448	10.47
672.577	10.47
672.706	11.63
672.834	4.02
672.963	10.53
673.092	5
673.22	12.83
673.349	8.13
673.477	18.56
673.606	19.98
673.735	28.33
673.863	17.98
673.992	37.23
674.12	41.63
674.249	35.86
674.377	57.07
674.506	79.02
674.634	89.59
674.763	128.03
674.892	147.12
675.02	184.98
675.149	237.56
675.277	151.36
675.406	74.66
675.534	41.64
675.663	24.69
675.791	14.1
675.92	11.43
676.048	21.67
676.176	24.14
676.305	32.75
676.433	35.71
676.562	37.8
676.69	20.34
676.819	6.01
676.947	3.92
677.076	-12.61
677.204	-0.28
677.332	15.49
677.461	4.22
677.589	7.8
677.718	8.7
677.846	7.84
677.975	6.1
678.103	-18.54
678.231	9.48
678.36	10.12
678.488	3.22
678.616	7.61
678.745	-3.57
678.873	-3.47
679.001	-0.48
679.13	-1.68
679.258	7.49
679.386	8.7
679.515	-4.37
679.643	4.12
679.771	2.21
679.9	-1.28
680.028	7.83
680.156	9.81
680.285	12.78
680.413	9.94
680.541	0.12
680.669	10.27
680.798	4.71
680.926	5.13
681.054	12.32
681.182	7.69
681.311	3.5
681.439	11.49
681.567	12.84
681.695	8.52
681.824	6.73
681.952	-1.58
682.08	-7
682.208	-2.38
682.336	7.22
682.465	7.12
682.593	2.12
682.721	14.92
682.849	20.91
682.977	12.42
683.105	10.51
683.234	6.02
683.362	4.3
683.49	0.42
683.618	-10.08
683.746	-3.65
683.874	-0.88
684.002	3.22
684.131	11.23
684.259	2.61
684.387	8.82
684.515	14.04
684.643	-5.47
684.771	6.6
684.899	2.92
685.027	2.93
685.155	18.09
685.283	17.31
685.411	18.89
685.539	10
685.667	21.8
685.796	13.39
685.924	44.78
686.052	32.38
686.18	57.14
686.308	64.77
686.436	81.3
686.564	93.13
686.692	128.46
686.82	150.82
686.948	189.44
687.076	167.65
687.204	85.25
687.332	34.67
687.459	26.39
687.587	20.76
687.715	25.1
687.843	34.73
687.971	30.24
688.099	27.29
688.227	38.13
688.355	48.31
688.483	45.19
688.611	44.31
688.739	45.94
688.867	14.29
688.995	9.17
689.122	-0.08
689.25	-4.58
689.378	2.6
689.506	-4.05
689.634	-1.98
689.762	3.12
689.89	1.82
690.018	9.49
690.145	2.62
690.273	10.2
690.401	5.4
690.529	5.32
690.657	11.9
690.784	8.81
690.912	3.61
691.04	5.49
691.168	13.02
691.296	9.1
691.423	8.97
691.551	9.1
691.679	8.42
691.807	7.01
691.935	17.52
692.062	19.82
692.19	24.71
692.318	27.19
692.446	25.04
692.573	14.75
692.701	28.77
692.829	38.45
692.956	37.75
693.084	36.59
693.212	48.7
693.34	52.09
693.467	84.96
693.595	80.96
693.723	81.93
693.85	40.03
693.978	26.01
694.106	17.78
694.233	21.68
694.361	24.34
694.489	33.61
694.616	47.2
694.744	50.63
694.871	50.02
694.999	70.12
695.127	69.7
695.254	87.58
695.382	91.54
695.509	119.3
695.637	144.25
695.765	199.54
695.892	232.23
696.02	280.48
696.147	326.16
696.275	390.57
696.403	480.27
696.53	345.32
696.658	132.56
696.785	36.9
696.913	15.4
697.04	17.96
697.168	15.36
697.295	9.1
697.423	17.29
697.55	9.47
697.678	-4.46
697.805	10.8
697.933	3.72
698.06	-4.65
698.188	2.22
698.315	2.33
698.443	3.32
698.57	10.7
698.698	15.33
698.825	11.01
698.952	17.23
699.08	7.55
699.207	7.94
699.335	0.92
699.462	6.33
699.59	16.16
699.717	-2.17
699.844	8.72
699.972	2.62
700.099	2.91
700.227	5.48
700.354	-0.58
700.481	10.5
700.609	8.17
700.736	12.2
700.863	7.81
700.991	13.7
701.118	10.77
701.245	4.1
701.373	22.6
701.5	19.84
701.627	15.88
701.755	11.78
701.882	20.66
702.009	36.52
702.137	47.71
702.264	67.75
702.391	78.58
702.518	87.5
702.646	106.36
702.773	112.53
702.9	131.69
703.027	102.92
703.155	20.12
703.282	12.59
703.409	6.61
703.536	15.52
703.664	12.4
703.791	5.52
703.918	1.72
704.045	24.36
704.172	17.52
704.3	19.51
704.427	18.62
704.554	29.69
704.681	13.12
704.808	19.46
704.936	30.11
705.063	39.85
705.19	55.93
705.317	61.37
705.444	66.27
705.571	85.59
705.698	112.64
705.826	129.25
705.953	185.94
706.08	227.49
706.207	264.04
706.334	332.95
706.461	389.67
706.588	493.04
706.715	419.04
706.842	210.38
706.969	64.19
707.096	20.14
707.224	10.29
707.351	8.93
707.478	-0.08
707.605	15.57
707.732	17.9
707.859	7.51
707.986	12.85
708.113	4.13
708.24	-0.18
708.367	6.61
708.494	8.39
708.621	13.82
708.748	-0.87
708.875	-1.37
709.002	-2.27
709.129	-6.67
709.256	3.31
709.383	6.69
709.51	-4.77
709.637	14.57
709.764	9.69
709.89	10.58
710.017	12.01
710.144	28.76
710.271	9.47
710.398	6.97
710.525	25.02
710.652	26.66
710.779	14.27
710.906	10.07
711.033	10.51
711.16	3.02
711.286	4.41
711.413	10.66
711.54	13.97
711.667	10.43
711.794	8.12
711.921	15.04
712.048	20.63
712.174	17.12
712.301	38.62
712.428	34.48
712.555	28.27
712.682	5.12
712.808	-0.88
712.935	12.6
713.062	17.23
713.189	1.92
713.316	9.29
713.442	28.36
713.569	5.72
713.696	20.83
713.823	-53.87
713.949	25.14
714.076	42.21
714.203	47.68
714.33	39.04
714.456	54.7
714.583	54.3
714.71	47.33
714.837	25.95
714.963	10.09
715.09	11.6
715.217	16.21
715.343	20.64
715.47	9.08
715.597	23.62
715.723	22.48
715.85	27.83
715.977	8.21
716.103	14.78
716.23	24.58
716.357	7.3
716.483	9.99
716.61	3.42
716.736	5.62
716.863	9.78
716.99	-1.57
717.116	7.42
717.243	9.11
717.369	11.22
717.496	15.66
717.623	4.33
717.749	4.61
717.876	-11.56
718.002	8.29
718.129	2.22
718.255	9.61
718.382	5.29
718.509	-4.95
718.635	7.5
718.762	4.41
718.888	8.06
719.015	6.21
719.141	12.29
719.268	-0.28
719.394	12.4
719.521	16.91
719.647	18.85
719.774	32.29
719.9	47.74
720.027	56.64
720.153	55.46
720.279	66.73
720.406	84.9
720.532	92.97
720.659	92.58
720.785	44.96
720.912	1.91
721.038	-1.77
721.165	-2.98
721.291	1.02
721.417	3.81
721.544	-1.17
721.67	4.02
721.797	0.52
721.923	9.79
722.049	10.65
722.176	-3.27
722.302	16.5
722.428	8.1
722.555	-7.16
722.681	9.5
722.807	9.11
722.934	6.52
723.06	14.42
723.186	-1.87
723.313	7.23
723.439	-5.39
723.565	7.13
723.692	13.12
723.818	11.72
723.944	7.21
724.07	6.87
724.197	6.03
724.323	5.42
724.449	9.78
724.576	13.91
724.702	14.95
724.828	14.48
724.954	7.23
725.081	9.76
725.207	5.32
725.333	15.62
725.459	19.59
725.585	29.98
725.712	28.52
725.838	36.39
725.964	47.49
726.09	52.7
726.216	78.1
726.343	92.67
726.469	102.75
726.595	71.57
726.721	92.74
726.847	116.18
726.973	130.58
727.099	157.67
727.226	142.61
727.352	75.71
727.478	16.38
727.604	13.57
727.73	16.04
727.856	19.42
727.982	17.85
728.108	-0.38
728.234	9.14
728.361	26.17
728.487	15.6
728.613	13.9
728.739	6.42
728.865	7.9
728.991	7.4
729.117	2.32
729.243	1.42
729.369	8.5
729.495	8.58
729.621	9.28
729.747	19.03
729.873	18.33
729.999	21.34
730.125	16.76
730.251	20.6
730.377	29.26
730.503	42.06
730.629	55
730.755	60.88
730.881	56.77
731.007	91.31
731.133	69.05
731.259	46.82
731.385	51.02
731.511	56.17
731.637	14
731.763	13.09
731.888	-2.07
732.014	9.98
732.14	9.32
732.266	14.36
732.392	7.7
732.518	8.1
732.644	4.13
732.77	11.1
732.896	16.69
733.021	16.28
733.147	16.98
733.273	19.09
733.399	19.2
733.525	33.21
733.651	15.89
733.777	24.15
733.902	27.14
734.028	32.14
734.154	44.24
734.28	60.52
734.406	65.36
734.531	76.44
734.657	88.01
734.783	103.28
734.909	116.92
735.034	139.7
735.16	174.13
735.286	142.64
735.412	87.78
735.537	52.69
735.663	48.92
735.789	65.54
735.915	94.24
736.04	130.69
736.166	121.73
736.292	184.75
736.418	202.7
736.543	238.99
736.669	283.35
736.795	320.99
736.92	385.87
737.046	530.45
737.172	478.76
737.297	351.32
737.423	354.65
737.549	376.13
737.674	444.2
737.8	494.82
737.926	600.03
738.051	676.13
738.177	891.09
738.302	937.39
738.428	463.62
738.554	141.37
738.679	61.55
738.805	54.49
738.93	46.72
739.056	52.24
739.182	54.82
739.307	23.39
739.433	27.35
739.558	3.31
739.684	12.41
739.809	15.6
739.935	21.21
740.06	21.12
740.186	24.58
740.311	17.48
740.437	16.7
740.562	24.58
740.688	14.03
740.813	38.4
740.939	41.49
741.064	38.84
741.19	51.48
741.315	34.74
741.441	25.01
741.566	37.29
741.692	31.45
741.817	31.01
741.943	43.26
742.068	41.73
742.194	44.31
742.319	62.35
742.444	51.07
742.57	49.79
742.695	49.21
742.821	35.44
742.946	35.86
743.071	44.33
743.197	58.51
743.322	54.14
743.448	73.58
743.573	49.84
743.698	23.83
743.824	8.6
743.949	14.2
744.074	13.39
744.2	7.99
744.325	22.91
744.45	19.19
744.576	8.42
744.701	14.01
744.826	17.65
744.952	3.23
745.077	9.5
745.202	22.05
745.327	13.1
745.453	18.66
745.578	21.21
745.703	20.25
745.828	20.17
745.954	26.57
746.079	25.21
746.204	30.23
746.329	22.47
746.455	35.37
746.58	40.6
746.705	29.83
746.83	30.61
746.956	48.13
747.081	55.37
747.206	61.06
747.331	58.8
747.456	61.82
747.582	69.74
747.707	77.32
747.832	92.23
747.957	102.45
748.082	122.36
748.207	158.44
748.332	176.72
748.458	178.11
748.583	211.29
748.708	273.09
748.833	323.19
748.958	430.34
749.083	579.57
749.208	769.65
749.333	1015.61
749.458	1318.67
749.584	1473.77
749.709	1796.63
749.834	2069.56
749.959	2374.08
750.084	2872.33
750.209	3969.61
750.334	3313.92
750.459	1605.43
750.584	994.61
750.709	939.83
750.834	987.23
750.959	1114.05
751.084	1235.64
751.209	1500.6
751.334	1907.75
751.459	1117.8
751.584	343.38
751.709	118.31
751.834	61.46
751.959	46
752.084	30.36
752.209	28.38
752.334	9.9
752.459	15.33
752.584	19.11
752.709	7.42
752.834	12.29
752.959	12.18
753.083	5.8
753.208	12.48
753.333	20.42
753.458	14.51
753.583	17.47
753.708	15.69
753.833	25.25
753.958	15.53
754.083	24.76
754.207	13.97
754.332	23.08
754.457	13.21
754.582	17.79
754.707	18.48
754.832	7.31
754.956	12.5
755.081	0.42
755.206	12.9
755.331	7.38
755.456	24
755.581	7.91
755.705	16.36
755.83	9.12
755.955	9.68
756.08	11.38
756.204	14.81
756.329	2.72
756.454	16.68
756.579	2.02
756.703	-4.47
756.828	7.2
756.953	18.2
757.078	7.42
757.202	21.18
757.327	18.69
757.452	3.71
757.576	11.98
757.701	3.81
757.826	9.12
757.951	24.41
758.075	13.97
758.2	15.28
758.325	0.22
758.449	13.39
758.574	23.8
758.699	18.48
758.823	22.13
758.948	8.59
759.072	8.17
759.197	9.91
759.322	23.7
759.446	21.46
759.571	17.79
759.695	21.93
759.82	21.92
759.945	17.67
760.069	18.03
760.194	27.86
760.318	30.85
760.443	29.62
760.568	27.49
760.692	36.16
760.817	31.45
760.941	44.66
761.066	52.18
761.19	64.35
761.315	78.63
761.439	77.31
761.564	109.95
761.688	125.86
761.813	162.84
761.937	233
762.062	315.04
762.186	410.97
762.311	587.19
762.435	811.34
762.56	1008.58
762.684	1194.88
762.809	1425.34
762.933	1573.66
763.057	1704.29
763.182	2063.97
763.306	2850.11
763.431	2914.65
763.555	1151.14
763.68	346.94
763.804	122.37
763.928	70.61
764.053	42.85
764.177	40.02
764.302	26.02
764.426	18.71
764.55	19.14
764.675	14.29
764.799	17.44
764.923	19.11
765.048	14.54
765.172	0.52
765.296	19.93
765.421	6.92
765.545	28.42
765.669	12.93
765.794	17.46
765.918	21.26
766.042	5.6
766.167	31.06
766.291	18.77
766.415	22.14
766.539	33.34
766.664	27.18
766.788	10.61
766.912	28.92
767.036	11.49
767.161	12.17
767.285	7.38
767.409	16.14
767.533	8.02
767.658	-0.97
767.782	13.84
767.906	8.23
768.03	16.77
768.154	3.12
768.279	13.69
768.403	5.5
768.527	17.16
768.651	3.71
768.775	11.03
768.899	3.71
769.024	8.48
769.148	5.69
769.272	0.72
769.396	12.15
769.52	14.93
769.644	14.7
769.768	19.43
769.892	15.56
770.017	16.42
770.141	23.35
770.265	31.19
770.389	41.21
770.513	46.6
770.637	41.68
770.761	61.65
770.885	72.98
771.009	114.91
771.133	177.37
771.257	242.29
771.381	334.67
771.505	401.39
771.629	465.84
771.753	555.67
771.877	612.32
772.001	681.96
772.125	867.33
772.249	1206.83
772.373	848.63
772.497	285.99
772.621	94.28
772.745	41.19
772.869	35.47
772.993	10.64
773.117	12.47
773.241	15.4
773.365	15.35
773.489	15.05
773.613	1.52
773.737	11.75
773.861	27.06
773.985	7
774.109	0.82
774.233	-15.86
774.357	0.72
774.48	3.11
774.604	3.62
774.728	-6.56
774.852	8.15
774.976	3.21
775.1	-0.88
775.224	-7.05
775.347	11.2
775.471	-4.07
775.595	5.09
775.719	10.23
775.843	-7.05
775.967	5.43
776.09	6
776.214	4.41
776.338	6.32
776.462	4.3
776.586	22.92
776.709	5.31
776.833	11.51
776.957	3.11
777.081	3.72
777.204	14.52
777.328	4.3
777.452	0.12
777.576	0.32
777.699	0.62
777.823	2.91
777.947	7.79
778.071	5.12
778.194	5.12
778.318	-2.57
778.442	-0.48
778.565	8.42
778.689	4.7
778.813	1.52
778.936	5.73
779.06	10.53
779.184	-4.16
779.307	3.52
779.431	1.02
779.555	-1.37
779.678	11.26
779.802	7.42
779.926	-0.28
780.049	-0.38
780.173	9.27
780.296	-2.77
780.42	-3.87
780.544	1.22
780.667	-5.48
780.791	8.23
780.914	3.4
781.038	8.71
781.162	9.32
781.285	10.03
781.409	0.32
781.532	3.11
781.656	2.32
781.779	-1.37
781.903	9.59
782.026	-1.38
782.15	7.79
782.273	1.12
782.397	-8.08
782.52	-10.68
782.644	-4.88
782.767	8.19
782.891	-0.88
783.014	5.3
783.138	10.75
783.261	7.81
783.385	-9.12
783.508	1.71
783.632	-0.87
783.755	0.62
783.879	6.91
784.002	1.12
784.125	0.62
784.249	2.11
784.372	3.4
784.496	18.47
784.619	-2.28
784.742	-3.48
784.866	8.21
784.989	21.66
785.113	17.88
785.236	10.41
785.359	18.35
785.483	15.58
785.606	22.34
785.729	13.01
785.853	16.22
785.976	25.65
786.099	15.94
786.223	17.43
786.346	6
786.469	3.33
786.593	22.85
786.716	20.15
786.839	17.88
786.962	0.22
787.086	2.11
787.209	5.11
787.332	30.87
787.455	-0.77
787.579	5.5
787.702	3.42
787.825	16.33
787.948	13.64
788.072	18.98
788.195	24.62
788.318	28.89
788.441	40.38
788.565	42.06
788.688	37.02
788.811	49.59
788.934	72.37
789.057	51.6
789.181	24.82
789.304	20.11
789.427	-7.76
789.55	6.1
789.673	14.55
789.796	5.62
789.919	6.5
790.043	11.9
790.166	7.99
790.289	5.71
790.412	8.02
790.535	16.38
790.658	22.16
790.781	20.94
790.904	18.39
791.027	9.6
791.15	2.83
791.274	17.78
791.397	14.91
791.52	11.08
791.643	3.2
791.766	19.96
791.889	9.47
792.012	12.11
792.135	16.99
792.258	13.45
792.381	5.21
792.504	14.13
792.627	16.37
792.75	26.54
792.873	19.4
792.996	22.86
793.119	24.74
793.242	38.27
793.365	50.17
793.488	62.15
793.611	105.36
793.734	184.22
793.857	307.66
793.98	452.3
794.103	537.68
794.226	552.87
794.348	599.45
794.471	708.51
794.594	1008.94
794.717	1115.81
794.84	479.98
794.963	134.24
795.086	54.56
795.209	26.75
795.332	25.32
795.454	18.88
795.577	12.41
795.7	1.32
795.823	21.95
795.946	7.63
796.069	11.62
796.192	11.72
796.314	14.02
796.437	14.9
796.56	8.51
796.683	7.38
796.806	5.29
796.928	7.63
797.051	11.88
797.174	11.08
797.297	9.11
797.42	15.82
797.542	9.39
797.665	0.32
797.788	8.19
797.911	11.96
798.033	18.99
798.156	8.88
798.279	16.1
798.402	17.15
798.524	6.24
798.647	7.8
798.77	22.11
798.892	29.03
799.015	27.52
799.138	32.43
799.26	46.41
799.383	63.56
799.506	112.69
799.628	180.55
799.751	312.67
799.874	432.01
799.996	446.24
800.119	488.47
800.242	603.38
800.364	778.47
800.487	1096.09
800.609	831.17
800.732	658.3
800.855	614.42
800.977	622.26
801.1	714.71
801.222	903.87
801.345	1192.07
801.468	640
801.59	186.79
801.713	62.12
801.835	22.27
801.958	9.54
802.08	16.4
802.203	12.06
802.325	6.3
802.448	8.61
802.571	13.66
802.693	5.58
802.816	10.06
802.938	11.67
803.061	9.04
803.183	17.11
803.305	8.07
803.428	9.42
803.55	20.33
803.673	17.8
803.795	12.87
803.918	18.53
804.04	18.58
804.163	15.83
804.285	26.01
804.408	30.04
804.53	27.73
804.652	19.29
804.775	27.27
804.897	35.21
805.02	27
805.142	53.37
805.264	46.14
805.387	20.64
805.509	4.9
805.631	10.65
805.754	14.01
805.876	13.32
805.999	10.71
806.121	10.77
806.243	4.1
806.366	16.88
806.488	8.03
806.61	4.8
806.733	8.23
806.855	12.48
806.977	13.26
807.099	26.15
807.222	24.14
807.344	19.37
807.466	25.66
807.589	24.29
807.711	31.83
807.833	38.47
807.955	24.41
808.078	29.13
808.2	31.53
808.322	31.36
808.444	43.88
808.566	41.78
808.689	45.51
808.811	83.76
808.933	75.94
809.055	99.15
809.177	132.14
809.3	206.74
809.422	390.76
809.544	773.83
809.666	1189.43
809.788	1244.86
809.911	1323.4
810.033	1612.46
810.155	2275.61
810.277	2286.38
810.399	1176.18
810.521	1055.85
810.643	2044.68
810.765	4027.92
810.888	5059.51
811.01	4966.95
811.132	5679.51
811.254	7106.6
811.376	9697.71
811.498	5473.69
811.62	1462.89
811.742	469.72
811.864	235.03
811.986	150.34
812.108	111.43
812.23	74.79
812.352	58.99
812.474	49.66
812.596	33.42
812.718	23.91
812.84	23.54
812.962	16.91
813.084	18.35
813.206	27.6
813.328	18.11
813.45	17.58
813.572	12.85
813.694	14.53
813.816	12.58
813.938	3.62
814.06	4.71
814.182	8.03
814.304	18.14
814.426	4.49
814.548	9.79
814.67	15.16
814.792	15.41
814.914	5.9
815.036	6.42
815.157	4.12
815.279	-0.48
815.401	19.67
815.523	6.13
815.645	12.17
815.767	-1.07
815.889	7.91
816.01	11.57
816.132	4.6
816.254	16.43
816.376	8.41
816.498	7.21
816.62	6.9
816.741	1.12
816.863	10.37
816.985	12.95
817.107	24.33
817.229	14.45
817.35	19.96
817.472	72.74
817.594	18.82
817.716	32.17
817.838	15.73
817.959	4.62
818.081	6.68
818.203	-3.98
818.325	-1.17
818.446	3.83
818.568	12.7
818.69	4.31
818.811	8.59
818.933	3.72
819.055	5.31
819.176	4.51
819.298	0.82
819.42	6.21
819.542	2.41
819.663	-2.37
819.785	6.01
819.907	0.22
820.028	-0.77
820.15	9.59
820.271	15.46
820.393	8.81
820.515	5.53
820.636	0.82
820.758	12.14
820.88	-5.74
821.001	4.12
821.123	0.72
821.244	10.29
821.366	7.38
821.487	14.73
821.609	-11.57
821.731	6.71
821.852	6.32
821.974	0.72
822.095	0.62
822.217	2.21
822.338	-4.06
822.46	-1.47
822.581	10.35
822.703	3.8
822.824	-6.99
822.946	-1.48
823.067	-1.28
823.189	2.41
823.31	-4.27
823.432	6.59
823.553	2.32
823.675	-2.77
823.796	-0.38
823.918	6.29
824.039	7.83
824.161	-10.1
824.282	3.22
824.404	1.92
824.525	9.42
824.646	13.22
824.768	19.46
824.889	14.41
825.011	26.31
825.132	15.31
825.253	34.49
825.375	28.25
825.496	41.5
825.617	89.74
825.739	312.58
825.86	580.19
825.982	624.61
826.103	666.22
826.224	910.15
826.346	780.09
826.467	231.22
826.588	68.98
826.71	33
826.831	17.51
826.952	16.53
827.073	10.81
827.195	10.72
827.316	20.54
827.437	2.11
827.559	4.51
827.68	7.42
827.801	10.7
827.922	3.71
828.044	-0.57
828.165	-1.27
828.286	2.8
828.407	11.63
828.529	5.2
828.65	5.63
828.771	10.29
828.892	2.62
829.013	3.11
829.135	4.72
829.256	-5.95
829.377	0.62
829.498	4.21
829.619	-2.68
829.74	10.56
829.862	2.21
829.983	0.32
830.104	9.09
830.225	-4.68
830.346	7.59
830.467	9.18
830.588	-11.47
830.709	-2.78
830.831	-8.75
830.952	6.27
831.073	5.43
831.194	1.72
831.315	0.12
831.436	-5.96
831.557	9.33
831.678	-4.15
831.799	4.21
831.92	-3.75
832.041	2.22
832.162	1.62
832.283	-1.97
832.404	9.95
832.525	0.12
832.646	2.52
832.767	13.83
832.888	7.76
833.009	17.08
833.13	7.9
833.251	2.01
833.372	0.12
833.493	4.01
833.614	2.12
833.735	6.48
833.856	3.63
833.977	-0.87
834.098	3.51
834.219	2.42
834.34	0.02
834.461	13.42
834.582	-5.35
834.703	-2.36
834.824	3
834.945	-0.88
835.066	22.36
835.186	16.53
835.307	4.31
835.428	-2.37
835.549	1.12
835.67	1.12
835.791	5.41
835.912	3.02
836.032	-3.88
836.153	-3.45
836.274	5.93
836.395	6.04
836.516	2.92
836.637	-4.96
836.757	9.04
836.878	1.72
836.999	0.32
837.12	3.31
837.241	6.8
837.361	2.52
837.482	11.52
837.603	9.86
837.724	30.03
837.844	15.02
837.965	24.49
838.086	24.98
838.207	28.99
838.327	19.69
838.448	3.21
838.569	15.79
838.689	19.55
838.81	14.62
838.931	26.46
839.052	24.14
839.172	13.07
839.293	20.95
839.414	7.24
839.534	21.04
839.655	14.19
839.776	20.26
839.896	32.24
840.017	48.5
840.137	168.52
840.258	766.5
840.379	1606.12
840.499	1626.7
840.62	2076.82
840.741	1100.49
840.861	250.59
840.982	94.39
841.102	65.25
841.223	28.54
841.344	40.64
841.464	41.89
841.585	71.08
841.705	113.5
841.826	445.51
841.946	1839.42
842.067	3042.5
842.187	3332.74
842.308	3353.26
842.428	1145.66
842.549	286.75
842.669	115.66
842.79	66.6
842.91	47.9
843.031	29.2
843.151	30.79
843.272	26.15
843.392	28
843.513	15.94
843.633	17.28
843.754	19.56
843.874	33.91
843.995	5.62
844.115	19.71
844.235	29.86
844.356	23.52
844.476	15.4
844.597	9.91
844.717	6.62
844.837	-5.23
844.958	3.52
845.078	-5.46
845.199	-2.27
845.319	7.79
845.439	11.45
845.56	1.23
845.68	1.03
845.8	-41.87
845.921	5.9
846.041	-2.28
846.161	-0.68
846.282	5.08
846.402	-1.76
846.522	-3.87
846.643	5.91
846.763	5
846.883	-2.07
847.004	-2.68
847.124	-4.87
847.244	-9.01
847.364	1.02
847.485	-0.88
847.605	-1.88
847.725	4.68
847.845	10.73
847.966	6.63
848.086	12.51
848.206	1.91
848.326	-7.96
848.447	6.71
848.567	6.22
848.687	8.11
848.807	22.46
848.927	5.93
849.047	11.79
849.168	1.82
849.288	-5.03
849.408	-6.18
849.528	5.32
849.648	0.72
849.768	5.6
849.889	3.12
850.009	-5.86
850.129	4.8
850.249	-6.25
850.369	3.51
850.489	1.61
850.609	7.51
850.729	3.4
850.849	5.51
850.97	12.81
851.09	6.77
851.21	18.43
851.33	11
851.45	21.38
851.57	109.4
851.69	561.76
851.81	1135.48
851.93	1291.08
852.05	646.07
852.17	153.94
852.29	53.82
852.41	30.68
852.53	14.09
852.65	25.04
852.77	20.38
852.89	1.72
853.01	2.6
853.13	4.2
853.25	10.12
853.37	3.03
853.49	14.44
853.61	7.38
853.73	-5.98
853.85	-1.17
853.97	-4.35
854.09	2.61
854.209	-0.77
854.329	7.7
854.449	3.79
854.569	-1.87
854.689	6.5
854.809	9.19
854.929	15.47
855.049	0.22
855.169	12.64
855.288	-32.64
855.408	4.7
855.528	-10.19
855.648	4.41
855.768	13.53
855.888	4.81
856.007	-1.58
856.127	2.83
856.247	-1.38
856.367	3.31
856.487	-4.45
856.606	-1.47
856.726	-4.98
856.846	1.31
856.966	4.11
857.086	-1.07
857.205	-5.97
857.325	18.6
857.445	5.5
857.565	11.03
857.684	1.32
857.804	9.07
857.924	4.58
858.044	0.92
858.163	9.81
858.283	-2.36
858.403	2.02
858.522	-12.04
858.642	8.32
858.762	4.01
858.881	0.22
859.001	10.11
859.121	9.5
859.24	2.51
859.36	-4.05
859.48	3.02
859.599	-3.86
859.719	1.22
859.839	7.18
859.958	4.82
860.078	20.24
860.197	35.56
860.317	102.07
860.437	60.79
860.556	16.62
860.676	6.61
860.795	3.4
860.915	-1.68
861.034	10.63
861.154	-8.33
861.274	12.49
861.393	-0.08
861.513	2.62
861.632	18.5
861.752	43.79
861.871	43.09
861.991	10.69
862.11	9.12
862.23	1.02
862.349	3.41
862.469	6.03
862.588	-5.66
862.708	4.81
862.827	0.72
862.947	0.32
863.066	0.92
863.186	-8.93
863.305	-4.49
863.424	11.71
863.544	9
863.663	-1.66
863.783	-1.48
863.902	-2.68
864.022	-2.27
864.141	-1.77
864.26	10.52
864.38	11.4
864.499	-1.07
864.619	4.78
864.738	-3.06
864.857	12.32
864.977	-7.7
865.096	4.69
865.215	-4.37
865.335	2.92
865.454	-5.58
865.573	9.92
865.693	2.72
865.812	-3.68
865.931	-5.89
866.051	1.21
866.17	12.55
866.289	9.6
866.408	74.89
866.528	301.95
866.647	211.44
866.766	55.46
866.886	20.2
867.005	5.41
867.124	12.03
867.243	8.91
867.363	-2.16
867.482	5.12
867.601	28.51
867.72	18.43
867.839	9.54
867.959	0.22
868.078	7.61
868.197	-5.16
868.316	4.2
868.435	2.6
868.555	12.41
868.674	10.21
868.793	6.57
868.912	13.76
869.031	4.52
869.15	6.41
869.27	4.7
869.389	5.28
869.508	2.32
869.627	-4.17
869.746	10.05
869.865	6.78
869.984	-1.77
870.103	8.91
870.222	-7.65
870.341	11.43
870.461	1.72
870.58	2.12
870.699	-0.87
870.818	3.1
870.937	2.82
871.056	11.31
871.175	7.87
871.294	9.22
871.413	12.69
871.532	-1.68
871.651	8.21
871.77	9.23
871.889	6.9
872.008	7.54
872.127	2.41
872.246	-4.54
872.365	3.32
872.484	6.31
872.603	4.5
872.722	3.11
872.841	3.61
872.96	-4.18
873.079	1.72
873.198	0.42
873.316	-5.79
873.435	18.67
873.554	3.01
873.673	7.39
873.792	9.73
873.911	-4.66
874.03	-6.88
874.149	-3.77
874.268	8.13
874.387	-3.48
874.505	-8.25
874.624	5.9
874.743	-4.67
874.862	8.03
874.981	6.31
875.1	-0.77
875.218	0.82
875.337	-16.91
875.456	4.9
875.575	6.61
875.694	5.12
875.813	20.39
875.931	97.52
876.05	39.91
876.169	22.54
876.288	12.9
876.406	2.81
876.525	-4.48
876.644	5.32
876.763	10.6
876.881	23.63
877	12.11
877.119	-4.59
877.238	1.92
877.356	-8.55
877.475	7.46
877.594	6.51
877.712	15.27
877.831	11.44
877.95	7.68
878.068	2.62
878.187	3.72
878.306	8.58
878.424	-0.08
878.543	7.8
878.662	0.22
878.78	-1.97
878.899	2.81
879.018	4.32
879.136	-0.48
879.255	10.43
879.374	8.18
879.492	3.02
879.611	18.72
879.729	32.03
879.848	4.29
879.966	1.72
880.085	4.81
880.204	4.6
880.322	4.63
880.441	-0.68
880.559	4.4
880.678	-1.77
880.796	6.83
880.915	-9.58
881.033	-4.97
881.152	2.81
881.27	-3.65
881.389	-5.18
881.507	6.42
881.626	10.24
881.744	11.16
881.863	9.81
881.981	0.12
882.1	-9.49
882.218	-6.13
882.337	-6.16
882.455	-4.17
882.574	-6.07
882.692	-2.26
882.81	-8.58
882.929	6.51
883.047	-6.86
883.166	-2.46
883.284	2.82
883.403	-0.88
883.521	8.26
883.639	47.8
883.758	9.71
883.876	-9.98
883.994	11.05
884.113	3.39
884.231	10.93
884.349	14.32
884.468	7.97
884.586	0.62
884.705	23.03
884.823	45.08
884.941	18.55
885.059	15.65
885.178	6.04
885.296	0.82
885.414	-0.77
885.533	4.52
885.651	9.6
885.769	0.82
885.887	0.42
886.006	16.36
886.124	-4.97
886.242	-4.17
886.36	10.51
886.479	-0.37
886.597	3.92
886.715	-12.39
886.833	6.88
886.952	4.6
887.07	-0.08
887.188	10.32
887.306	-5.83
887.424	-1.07
887.543	0.42
887.661	-1.37
887.779	6.58
887.897	4.58
888.015	-2.67
888.133	11.1
888.251	5.1
888.37	-1.57
888.488	3.13
888.606	-8.99
888.724	0.62
888.842	5.08
888.96	11.09
889.078	1.62
889.196	-0.47
889.314	7.47
889.433	7.82
889.551	-0.98
889.669	-8.14
889.787	6.11
889.905	8.79
890.023	-1.37
890.141	-0.87
890.259	3.62
890.377	0.62
890.495	0.72
890.613	-6.51
890.731	5.88
890.849	2.22
890.967	2.52
891.085	17.85
891.203	2.3
891.321	1.22
891.439	8.02
891.557	2.69
891.675	-5.74
891.793	1.22
891.911	-1.67
892.029	15.26
892.147	-0.58
892.265	-2.08
892.383	7.43
892.5	0.12
892.618	-10.9
892.736	0.02
892.854	5.22
892.972	4.67
893.09	6.16
893.208	1.02
893.326	0.02
893.444	1.42
893.561	-0.58
893.679	-1.98
893.797	8.62
893.915	3.01
894.033	-6.57
894.151	-1.38
894.268	-0.08
894.386	1.61
894.504	-14.61
894.622	-4.77
894.74	6.32
894.857	3.6
894.975	20.34
895.093	-0.08
895.211	-5.68
895.329	-6.65
895.446	-4.15
895.564	4.41
895.682	-3.77
895.8	4.72
895.917	8.46
896.035	3.13
896.153	11.35
896.271	7.57
896.388	3.81
896.506	2.62
896.624	1.52
896.741	10.49
896.859	-3.34
896.977	2.53
897.094	-0.28
897.212	3.31
897.33	1.71
897.447	1.02
897.565	0.52
897.683	-6.26
897.8	1.91
897.918	-4.78
898.036	-10.58
898.153	-5.26
898.271	5.72
898.388	7.92
898.506	-2.68
898.624	-9.7
898.741	3.42
898.859	0.32
898.976	0.62
899.094	-3.38
899.211	10.41
899.329	4.63
899.447	1.52
899.564	-4.76
899.682	-8.76
899.799	4.93
899.917	2.51
900.034	-4.27
900.152	3.9
900.269	2.91
900.387	0.12
900.504	4.68
900.622	3.31
900.739	9.6
900.857	-1.77
900.974	0.92
901.092	-2.87
901.209	-1.48
901.326	7.59
901.444	3.21
901.561	-6.44
901.679	11.8
901.796	1.32
901.914	-6.63
902.031	3.91
902.148	16.84
902.266	2.31
902.383	2.8
902.501	-0.08
902.618	1.42
902.735	0.52
902.853	-0.58
902.97	-6.66
903.087	-8.17
903.205	3.93
903.322	4.88
903.439	-2.47
903.557	-2.27
903.674	1.22
903.791	3.3
903.909	0.52
904.026	1.22
904.143	-3.07
904.261	-3.16
904.378	-7.62
904.495	8.52
904.612	-11.49
904.73	3.81
904.847	-2.56
904.964	-5.47
905.081	-2.67
905.199	4.7
905.316	2.8
905.433	2.12
905.55	1.02
905.668	7.69
905.785	7.08
905.902	3.51
906.019	8.12
906.136	-0.08
906.254	6.5
906.371	12.62
906.488	21.57
906.605	3.5
906.722	12.24
906.839	3.32
906.957	1.12
907.074	29.31
907.191	18.75
907.308	28.37
907.425	16.21
907.542	9
907.659	18.68
907.776	5.22
907.893	-2.37
908.011	6.57
908.128	-8.43
908.245	-12.28
908.362	1.22
908.479	0.42
908.596	2.52
908.713	-66.83
908.83	-3.47
908.947	1.41
909.064	2.62
909.181	0.52
909.298	0.22
909.415	-7.44
909.532	8.27
909.649	8.32
909.766	5.62
909.883	-5.05
910	10.95
910.117	5.72
910.234	7.68
910.351	2.81
910.468	6.61
910.585	-0.88
910.702	2.73
910.819	1.21
910.936	2.72
911.053	7.21
911.17	19.77
911.287	23.32
911.403	5.4
911.52	16.51
911.637	31.72
911.754	67.97
911.871	230.35
911.988	1401.52
912.105	3092.96
912.222	1318.28
912.338	694.33
912.455	484.5
912.572	387.89
912.689	240.89
912.806	135.09
912.923	67.57
913.039	41.35
913.156	25.86
913.273	27.26
913.39	13.26
913.507	14
913.623	2.91
913.74	11.04
913.857	1.02
913.974	7.11
914.091	-4.95
914.207	1.71
914.324	-2.37
914.441	-3.68
914.558	14.51
914.674	-0.38
914.791	4.03
914.908	-1.48
915.024	-1.27
915.141	3.99
915.258	14.25
915.375	11.52
915.491	-3.06
915.608	-7.42
915.725	-4.89
915.841	-4.18
915.958	1.21
916.075	-2.06
916.191	15.74
916.308	-1.47
916.425	3.4
916.541	0.92
916.658	3.91
916.774	1.62
916.891	-0.48
917.008	1.61
917.124	-2.77
917.241	6.94
917.357	-5.06
917.474	6.78
917.591	-5.18
917.707	7.91
917.824	8.73
917.94	5.5
918.057	3.72
918.173	5.01
918.29	1.92
918.406	4.19
918.523	8.1
918.639	1.82
918.756	0.42
918.872	3.7
918.989	6.94
919.105	9.79
919.222	61.65
919.338	62.72
919.455	18.82
919.571	28.92
919.688	20.95
919.804	-37.8
919.921	22.98
920.037	6.01
920.154	120.82
920.27	-0.77
920.386	6.1
920.503	-2.98
920.619	9.8
920.736	-2.36
920.852	1.72
920.968	2.72
921.085	2.01
921.201	10.24
921.318	-3.28
921.434	9.41
921.55	1.12
921.667	3
921.783	11.02
921.899	20.08
922.016	68.23
922.132	356.66
922.248	740.01
922.365	354.53
922.481	185.78
922.597	127.53
922.714	102.11
922.83	86.05
922.946	57.93
923.062	37.21
923.179	21.96
923.295	9.51
923.411	4.31
923.527	7.98
923.644	3.12
923.76	12.71
923.876	-2.37
923.992	4.81
924.109	8.72
924.225	8.53
924.341	11.48
924.457	4.82
924.573	-0.08
924.69	9.52
924.806	3.41
924.922	-2.27
925.038	-8.08
925.154	7.2
925.27	6.73
925.387	0.22
925.503	1.52
925.619	0.12
925.735	1.02
925.851	2.71
925.967	4.03
926.083	2.02
926.199	0.12
926.316	-1.37
926.432	8.53
926.548	11.5
926.664	-0.87
926.78	0.81
926.896	-7.17
927.012	3.93
927.128	-3.17
927.244	6.59
927.36	4.81
927.476	4.01
927.592	-8.27
927.708	6.38
927.824	-1.38
927.94	1.12
928.056	-5.24
928.172	0.52
928.288	8.15
928.404	-5.07
928.52	-2.78
928.636	5.71
928.752	9.31
928.868	23.23
928.984	24.49
929.1	16.46
929.216	7.63
929.332	10.2
929.448	-4.85
929.564	5.98
929.68	-6.37
929.796	15.3
929.911	4.1
930.027	-3.07
930.143	5.22
930.259	-6.67
930.375	5.21
930.491	3.2
930.607	-7.18
930.723	1.82
930.838	5.19
930.954	8.02
931.07	3.52
931.186	0.62
931.302	1.02
931.418	4.29
931.533	-1.27
931.649	2.82
931.765	0.12
931.881	6.49
931.997	9.71
932.112	-39.27
932.228	-13.4
932.344	-27.86
932.46	-0.98
932.576	-6.68
932.691	-3.16
932.807	6.71
932.923	-9.95
933.038	2.32
933.154	15.99
933.27	3.62
933.386	6.21
933.501	2.43
933.617	7.53
933.733	16.6
933.848	1.02
933.964	3.41
934.08	-0.87
934.195	5.97
934.311	-0.08
934.427	-0.28
934.542	9.5
934.658	4.49
934.774	3.12
934.889	-0.18
935.005	17.77
935.121	32.89
935.236	43.02
935.352	27.21
935.467	13.49
935.583	12.3
935.699	4.81
935.814	12.72
935.93	10.36
936.045	9.98
936.161	-0.18
936.276	-5.59
936.392	0.32
936.507	1.02
936.623	-3.07
936.739	-0.78
936.854	-6.24
936.97	-16.28
937.085	8.59
937.201	-2.57
937.316	5.31
937.432	3.51
937.547	14.71
937.663	2.02
937.778	8.15
937.893	-7.93
938.009	8.9
938.124	13.3
938.24	11.57
938.355	-0.28
938.471	9.81
938.586	-5.35
938.702	10.07
938.817	-2.27
938.932	12.39
939.048	5.21
939.163	-0.38
939.279	-0.08
939.394	-3.08
939.509	0.02
939.625	-6.96
939.74	8.53
939.855	-0.38
939.971	13.03
940.086	11.85
940.201	3.8
940.317	-1.17
940.432	10.6
940.547	-2.08
940.663	12.05
940.778	-2.08
940.893	-5.88
941.009	2.91
941.124	-8.93
941.239	-3.67
941.355	0.02
941.47	-0.47
941.585	0.52
941.7	5.83
941.816	8.02
941.931	-5.24
942.046	-7.74
942.161	5.62
942.276	5.31
942.392	-6.04
942.507	-0.77
942.622	0.62
942.737	2.22
942.852	8.09
942.968	-7.14
943.083	-8.4
943.198	-0.18
943.313	-0.18
943.428	2.1
943.544	-5.67
943.659	-0.08
943.774	-0.28
943.889	-1.28
944.004	-8.68
944.119	2.92
944.234	3.99
944.349	-4.27
944.465	1.52
944.58	4.81
944.695	5.58
944.81	-2.86
944.925	7.6
945.04	-4.58
945.155	9.97
945.27	-1.66
945.385	-3.17
945.5	16.74
945.615	1.32
945.73	16.59
945.845	7.02
945.96	10.74
946.075	5.5
946.19	4.4
946.305	5.9
946.42	-2.87
946.535	9.08
946.65	8.16
946.765	-1.58
946.88	5.82
946.995	12.86
947.11	13.41
947.225	1.22
947.34	-3.47
947.455	8.12
947.57	-196.48
947.685	-0.48
947.8	0.82
947.915	-2.56
948.03	-2.07
948.144	-6.87
948.259	1.12
948.374	-3.65
948.489	-0.08
948.604	1.22
948.719	12.7
948.834	6.31
948.949	1.02
949.063	0.72
949.178	-5.97
949.293	-7.03
949.408	2.3
949.523	0.42
949.638	5.31
949.752	0.92
949.867	-0.37
949.982	-7.78
950.097	-3.77
950.212	-0.38
950.326	-1.66
950.441	-5.17
950.556	-4.08
950.671	-6.95
950.785	12.27
950.9	-3.87
951.015	-4.68
951.13	3.42
951.244	5.11
951.359	10.4
951.474	-6.77
951.588	11.55
951.703	-7.24
951.818	7.4
951.932	-6.57
952.047	1.02
952.162	-0.08
952.277	8.11
952.391	13.09
952.506	-4.36
952.62	0.12
952.735	3.22
952.85	0.82
952.964	11.88
953.079	1.32
953.194	-3.78
953.308	-0.18
953.423	5.4
953.537	3.91
953.652	-4.17
953.767	1.62
953.881	8.31
953.996	6.2
954.11	1.22
954.225	4.72
954.339	0.32
954.454	-2.36
954.569	7.72
954.683	-2.97
954.798	-0.77
954.912	-5.26
955.027	-14.98
955.141	3.42
955.256	-1.66
955.37	-11.33
955.485	3.51
955.599	3.82
955.714	-3.57
955.828	5.79
955.943	-1.78
956.057	-4.88
956.171	-2.47
956.286	2.81
956.4	-1.98
956.515	-1.18
956.629	-6.96
956.744	10.42
956.858	6.61
956.972	7.21
957.087	2.9
957.201	-0.48
957.316	-14.16
957.43	-4.86
957.544	-0.47
957.659	9.01
957.773	3.72
957.887	-2.77
958.002	-1.47
958.116	-0.08
958.23	9.1
958.345	-2.07
958.459	-1.17
958.573	8.16
958.688	-6.07
958.802	-1.37
958.916	-4.65
959.031	-1.77
959.145	-2.08
959.259	2.53
959.373	4.01
959.488	0.82
959.602	-11.56
959.716	3.22
959.831	-0.18
959.945	11.26
960.059	-4.76
960.173	-5.15
960.287	-0.08
960.402	-1.87
960.516	1.72
960.63	-2.78
960.744	7.02
960.858	2.81
960.973	-10.27
961.087	1.22
961.201	13.26
961.315	6.62
961.429	7.42
961.543	4.81
961.658	1.32
961.772	-1.67
961.886	1.81
962	-9.16
962.114	-4.56
962.228	1.41
962.342	5.32
962.456	-1.88
962.571	2.91
962.685	0.12
962.799	-0.98
962.913	12.53
963.027	-2.07
963.141	-3.88
963.255	-1.17
963.369	-7.25
963.483	4.12
963.597	2.9
963.711	-4.57
963.825	-6.07
963.939	-0.57
964.053	5.78
964.167	1.12
964.281	-8.85
964.395	9.29
964.509	-4.18
964.623	4.91
964.737	-2.37
964.851	-13.43
964.965	3.32
965.079	11.6
965.193	13.81
965.307	59.58
965.421	229.87
965.535	403.65
965.649	240.24
965.762	176.73
965.876	122.9
965.99	93.88
966.104	88.32
966.218	68.23
966.332	62.29
966.446	60.65
966.56	48.4
966.674	42.57
966.787	26.4
966.901	26.35
967.015	17.22
967.129	16.03
967.243	9.31
967.357	2.52
967.47	2.02
967.584	4.71
967.698	-10.66
967.812	-0.47
967.926	0.12
968.039	-0.27
968.153	-2.46
968.267	2.12
968.381	-8.85
968.494	8.25
968.608	2.7
968.722	5.91
968.836	-1.37
968.949	10.69
969.063	-0.48
969.177	-1.18
969.291	2.92
969.404	4.43
969.518	-4.53
969.632	12.14
969.745	-0.28
969.859	3.41
969.973	11.28
970.086	-4.97
970.2	8.2
970.314	9.08
970.427	-5.45
970.541	9.32
970.655	1.72
970.768	2.82
970.882	-3.47
970.996	8.61
971.109	-3.77
971.223	4.31
971.336	-5.45
971.45	5.81
971.564	2.81
971.677	4.81
971.791	6.21
971.904	7.52
972.018	5.72
972.131	-1.87
972.245	-11.83
972.358	5.12
972.472	10
972.586	11.9
972.699	7.39
972.813	19.09
972.926	-2.67
973.04	-2.18
973.153	-1.87
973.267	-0.87
973.38	-1.48
973.493	9.08
973.607	-2.37
973.72	-9.29
973.834	3.62
973.947	2.01
974.061	4.91
974.174	-8.77
974.288	1.32
974.401	1.22
974.514	13.39
974.628	-0.48
974.741	-0.68
974.855	-4.78
974.968	-7.68
975.081	-2.17
975.195	0.72
975.308	-6.09
975.422	-3.66
975.535	4.91
975.648	-1.27
975.762	-4.64
975.875	9.31
975.988	2.51
976.102	3.11
976.215	-2.46
976.328	-7.71
976.442	-10.65
976.555	-8.99
976.668	-2.06
976.781	6.29
976.895	5.79
977.008	4.42
977.121	-3.27
977.235	-19.26
977.348	5.82
977.461	0.42
977.574	2.42
977.688	-7.43
977.801	-6.16
977.914	12.38
978.027	9.2
978.14	36.77
978.254	36.89
978.367	25.39
978.48	23.87
978.593	7.81
978.706	14.27
978.82	2.42
978.933	14.66
979.046	5.58
979.159	8.01
979.272	0.22
979.385	10.55
979.498	4.02
979.612	-8.9
979.725	9.69
979.838	0.52
979.951	3.51
980.064	7.82
980.177	5.91
980.29	17.12
980.403	3.71
980.516	0.02
980.629	3.52
980.743	9.08
980.856	-5.58
980.969	-1.97
981.082	-5.07
981.195	3.21
981.308	0.32
981.421	2.02
981.534	5.52
981.647	-1.67
981.76	-5.24
981.873	2.52
981.986	-0.77
982.099	4.11
982.212	5.6
982.325	-1.88
982.438	-4.37
982.551	-11.57
982.664	3.81
982.777	-1.88
982.889	15.14
983.002	1.52
983.115	12.11
983.228	-4.86
983.341	2.92
983.454	2.61
983.567	0.32
983.68	-11.94
983.793	1.12
983.906	1.82
984.019	1.82
984.131	8.99
984.244	1.32
984.357	-1.27
984.47	7.06
984.583	-8.98
984.696	-4.37
984.808	2.51
984.921	-4.95
985.034	-0.98
985.147	2.92
985.26	1.52
985.373	5.3
985.485	8
985.598	0.52
985.711	-10.99
985.824	9.79
985.936	-1.68
986.049	5
986.162	-11.13
986.275	-6.43
986.387	-3.37
986.5	4.62
986.613	-0.57
986.726	-2.06
986.838	-2.37
986.951	-0.28
987.064	3.21
987.176	3.01
987.289	3.62
987.402	7.31
987.514	1.32
987.627	-4.26
987.74	2.62
987.852	9.49
987.965	4.21
988.078	7.88
988.19	-3.68
988.303	9.21
988.416	2.02
988.528	10.49
988.641	-0.48
988.753	2.52
988.866	-0.18
988.979	5.3
989.091	-3.16
989.204	-4.86
989.316	-5.74
989.429	3.21
989.541	1.42
989.654	5.13
989.767	-4.06
989.879	3.22
989.992	1.12
990.104	2.22
990.217	3.22
990.329	0.92
990.442	12.35
990.554	-3.97
990.667	1.22
990.779	-0.97
990.892	-2.77
991.004	1.32
991.117	-5.46
991.229	4.81
991.342	-0.98
991.454	1.52
991.566	3.62
991.679	8.01
991.791	1.92
991.904	-2.38
992.016	3.2
992.129	-31.49
992.241	-1.87
992.353	3.12
992.466	4
992.578	-1.17
992.691	-2.78
992.803	12
992.915	8.61
993.028	-2.57
993.14	10.52
993.252	-0.78
993.365	10
993.477	5.72
993.589	5.12
993.702	-2.78
993.814	-6.17
993.926	1.22
994.039	-1.88
994.151	-2.86
994.263	8.36
994.375	-5.16
994.488	-11.18
994.6	4.63
994.712	-8.42
994.824	1.92
994.937	-2.07
995.049	5.82
995.161	12.37
995.273	6.69
995.386	-1.87
995.498	7.6
995.61	-4.75
995.722	9.98
995.834	-0.98
995.947	-0.58
996.059	5.3
996.171	-10.87
996.283	0.22
996.395	0.32
996.507	2.52
996.62	1.71
996.732	0.52
996.844	16.78
996.956	3.51
997.068	-6.45
997.18	-4.47
997.292	7.01
997.404	-6.05
997.517	-2.28
997.629	-1.68
997.741	3.11
997.853	-3.07
997.965	10.37
998.077	-8.97
998.189	-75.42
998.301	12.26
998.413	-3.07
998.525	1.72
998.637	-7.86
998.749	15.12
998.861	-4.86
998.973	2.23
999.085	10.6
999.197	8.08
999.309	6.31
999.421	-7.06
999.533	-5.57
999.645	0.02
999.757	6.41
999.869	-7.24
999.981	-6.06
1000.093	5.93
1000.205	4.99
1000.317	-5.28
1000.429	5.21
1000.541	2.72
1000.653	8.86
1000.765	3.12
1000.876	-0.18
1000.988	3.11
1001.1	-0.28
1001.212	-0.08
1001.324	-3.37
1001.436	5.82
1001.548	6.2
1001.66	2.62
1001.771	4.03
1001.883	0.92
1001.995	-2.57
1002.107	-0.98
1002.219	0.92
1002.331	-2.07
1002.442	4.92
1002.554	4.72
1002.666	1.12
1002.778	5.41
1002.89	9.39
1003.001	6.12
1003.113	-7.29
1003.225	-2.47
1003.337	-7.53
1003.448	-4.77
1003.56	4.11
1003.672	-3.27
1003.784	-4.85
1003.895	-4.57
1004.007	0.72
1004.119	9.68
1004.231	2.62
1004.342	-4.87
1004.454	6.11
1004.566	0.32
1004.677	-1.07
1004.789	-0.38
1004.901	11.6
1005.012	5.38
1005.124	12.82
1005.236	8.51
1005.347	2.31
1005.459	8.7
1005.571	-1.28
1005.682	1.32
1005.794	4.02
1005.905	5.02
1006.017	7.19
1006.129	0.32
1006.24	-4.58
1006.352	0.82
1006.463	-0.08
1006.575	0.52
1006.686	4.63
1006.798	6.39
1006.91	5.82
1007.021	-6.36
1007.133	-3.27
1007.244	10.98
1007.356	11.62
1007.467	-0.78
1007.579	-1.68
1007.69	0.42
1007.802	2.62
1007.913	5.7
1008.025	-0.28
1008.136	10.58
1008.248	6.21
1008.359	9.4
1008.471	-0.88
1008.582	-4.65
1008.693	6.7
1008.805	19.1
1008.916	10.99
1009.028	-2.56
1009.139	1.32
1009.251	-2.38
1009.362	5.9
1009.473	5.41
1009.585	7.12
1009.696	-5.08
1009.808	6.81
1009.919	-5.26
1010.03	6.32
1010.142	-2.97
1010.253	-2.07
1010.364	-12.03
1010.476	2.9
1010.587	-1.07
1010.698	-2.98
1010.81	-1.77
1010.921	-3.07
1011.032	7.12
1011.144	1.12
1011.255	5.41
1011.366	-7.56
1011.478	0.32
1011.589	-2.17
1011.7	7.9
1011.811	8.5
1011.923	7.12
1012.034	-8.66
1012.145	0.32
1012.256	1.82
1012.368	-8.33
1012.479	12.33
1012.59	7.89
1012.701	3.81
1012.812	4.41
1012.924	2.51
1013.035	-11.9
1013.146	-6.06
1013.257	4.02
1013.368	3.32
1013.48	-10.15
1013.591	10.14
1013.702	-3.27
1013.813	-3.16
1013.924	1.02
1014.035	-2.48
1014.146	4.51
1014.257	5.11
1014.369	-6.86
1014.48	6.7
1014.591	0.82
1014.702	3.72
1014.813	4.8
1014.924	-5.74
1015.035	-0.08
1015.146	0.92
1015.257	0.83
1015.368	10.78
1015.479	-2.67
1015.59	6.51
1015.701	-9.94
1015.812	9
1015.924	3.22
1016.035	6.74
1016.146	3.73
1016.257	-12.86
1016.368	8.62
1016.479	-9.26
1016.59	-4.87
1016.7	2.52
1016.811	6
1016.922	-0.08
1017.033	4.31
1017.144	-7.85
1017.255	-0.28
1017.366	9.29
1017.477	1.62
1017.588	6.31
1017.699	2.21
1017.81	4.41
1017.921	-1.37
1018.032	1.32
1018.143	-2.78
1018.253	8.78
1018.364	-4.05
1018.475	5.02
1018.586	-1.08
1018.697	0.32
1018.808	-7.55
1018.919	3.51
1019.029	-7.95
1019.14	-2.08
1019.251	-3.67
1019.362	4.51
1019.473	3.03
1019.584	8.01
1019.694	-0.28
1019.805	-3.06
1019.916	-6.28
1020.027	39.99
1020.137	2.42
1020.248	-1.07
1020.359	0.12
1020.47	-7.55
1020.581	-8.14
1020.691	-8.45
1020.802	-1.07
1020.913	-6.06
1021.023	-8.55
1021.134	6.78
1021.245	-4.36
1021.356	15.29
1021.466	-5.07
1021.577	1.22
1021.688	0.02
1021.798	7.5
1021.909	-15.3
1022.02	7.68
1022.13	1.82
1022.241	5.21
1022.352	-3.38
1022.462	3.61
1022.573	4.11
1022.683	0.62
1022.794	4.09
1022.905	-1.57
1023.015	5.3
1023.126	-11.07
1023.236	1.72
1023.347	-10.52
1023.458	-4.17
1023.568	2.42
1023.679	-1.47
1023.789	5
1023.9	2.52
1024.01	9.78
1024.121	3.41
1024.231	3.11
1024.342	-1.28
1024.453	-1.97
1024.563	3.11
1024.674	17.28
1024.784	0.92
1024.895	4.01
1025.005	-0.57
1025.116	5.92
1025.226	2.01
1025.336	8.43
1025.447	0.82
1025.557	0.42
1025.668	-1.67
1025.778	-13.79
1025.889	8.41
1025.999	3.9
1026.11	-4.27
1026.22	-7.46
1026.33	13.54
1026.441	-2.96
1026.551	-0.87
1026.662	-0.08
1026.772	1.32
1026.882	-1.27
1026.993	2.42
1027.103	-3.77
1027.213	4.02
1027.324	10.49
1027.434	-11.68
1027.544	3.92
1027.655	-3.47
1027.765	-8.08
1027.875	3.31
1027.986	-12.66
1028.096	5.7
1028.206	-0.87
1028.317	-13.9
1028.427	-3.56
1028.537	-6.03
1028.647	3.31
1028.758	-6.8
1028.868	8.72
1028.978	-1.47
1029.088	-0.47
1029.199	-2.88
1029.309	0.02
1029.419	14.42
1029.529	15.13
1029.639	2.02
1029.75	2.43
1029.86	12.14
1029.97	-2.46
1030.08	-11.76
1030.19	-3.98
1030.301	-5.47
1030.411	-3.06
1030.521	3.52
1030.631	3.02
1030.741	10.58
1030.851	3.71
1030.961	-1.67
1031.072	10.02
1031.182	1.22
1031.292	-7.75
1031.402	-2.07
1031.512	16.28
1031.622	4.72
1031.732	3.02
1031.842	7.31
1031.952	-8.19
1032.062	2.71
1032.172	-6.16
1032.282	-1.87
1032.393	-6.68
1032.503	-7.55
1032.613	7.68
1032.723	2.32
1032.833	1.52
1032.943	3.92
1033.053	12.68
1033.163	-2.38
1033.273	4.31
1033.383	9.98
1033.493	-5.25
1033.603	-5.97
1033.713	-1.67
1033.823	-8.86
1033.932	0.82
1034.042	-3.27
1034.152	-5.55
1034.262	8.77
1034.372	-2.97
1034.482	-1.17
1034.592	-4.85
1034.702	5.5
1034.812	-1.77
1034.922	1.52
1035.032	5.81
1035.141	0.02
1035.251	9.49
1035.361	1.02
1035.471	6.12
1035.581	-10.68
1035.691	5.12
1035.801	-0.48
1035.91	8.5
1036.02	-0.47
1036.13	0.32
1036.24	4.11
1036.35	-6.07
1036.46	-15.33
1036.569	6.09
1036.679	5.52
1036.789	-2.07
1036.899	-4.58
1037.008	-0.28
1037.118	-3.77
1037.228	-7.36
1037.338	-0.78
1037.447	3.41
1037.557	2.52
1037.667	-14.7
1037.777	3.7
1037.886	-2.97
1037.996	-6.08
1038.106	3.52
1038.215	-3.47
1038.325	-4.25
1038.435	5.7
1038.544	2.83
1038.654	-9.95
1038.764	0.22
