Data from 191228_Ar05mT_200W_ALA10_8000ms_Subt2_02-14-10-277.txt Node
Date: Sun Dec 29 02:14:10 KST 2019
User: L102
Spectrometer: HR4D2517
Trigger mode: 4
Integration Time (sec): 8.000000E0
Scans to average: 1
Electric dark correction enabled: true
Nonlinearity correction enabled: true
Boxcar width: 0
XAxis mode: Wavelengths
Number of Pixels in Spectrum: 3648
>>>>>Begin Spectral Data<<<<<
597.141	-1.18
597.272	-1.18
597.404	-1.18
597.536	-0.12
597.668	2.57
597.8	12.2
597.932	0.37
598.064	-9.09
598.196	5.36
598.328	3.27
598.46	-6.71
598.591	1.36
598.723	4.58
598.855	6.87
598.987	3.78
599.119	-7.41
599.251	-6.24
599.383	-8.24
599.514	17.76
599.646	8.47
599.778	-0.43
599.91	9
600.042	2.55
600.173	6.87
600.305	9.65
600.437	8.68
600.569	1.96
600.701	13.9
600.832	4.58
600.964	10.07
601.096	17.94
601.228	4.84
601.359	10.97
601.491	5.77
601.623	14.55
601.755	7.44
601.886	18.52
602.018	16.25
602.15	33.16
602.281	30.55
602.413	25.91
602.545	29.82
602.677	31.91
602.808	59.83
602.94	91.47
603.072	95.55
603.203	40.4
603.335	10.05
603.467	12.89
603.598	6.77
603.73	12.28
603.862	24.3
603.993	39.54
604.125	37.84
604.256	27.77
604.388	17.92
604.52	-1.03
604.651	4.36
604.783	0.67
604.915	-2.53
605.046	5.07
605.178	13.59
605.309	2.07
605.441	16.05
605.572	21.76
605.704	7.67
605.836	14.8
605.967	15.31
606.099	0.87
606.23	-2.62
606.362	1.17
606.493	9.15
606.625	-0.63
606.756	1.57
606.888	0.17
607.019	-4.74
607.151	-0.73
607.282	11.66
607.414	16.03
607.545	-16.28
607.677	8.86
607.808	7.39
607.94	-3.11
608.071	-1.92
608.203	11.39
608.334	-1.43
608.466	6.16
608.597	12.37
608.728	14.45
608.86	0.47
608.991	2.67
609.123	13.97
609.254	6.46
609.386	2.76
609.517	19.56
609.648	25.55
609.78	15.78
609.911	30.03
610.043	10.51
610.174	18.25
610.305	18.41
610.437	14.55
610.568	3.45
610.699	6.83
610.831	0.37
610.962	0.27
611.093	5.16
611.225	9.19
611.356	8.88
611.487	9.49
611.619	3.35
611.75	10.96
611.881	0.37
612.013	3.76
612.144	1.96
612.275	-5.19
612.406	7.36
612.538	9.8
612.669	7.35
612.8	1.46
612.931	-2.53
613.063	0.47
613.194	0.97
613.325	1.57
613.456	15.37
613.588	-0.83
613.719	-5.72
613.85	16.93
613.981	8.06
614.112	19.72
614.244	25.98
614.375	19.22
614.506	16.26
614.637	5.66
614.768	9.82
614.9	-4.12
615.031	1.97
615.162	-1.93
615.293	13.11
615.424	8.53
615.555	8.99
615.686	1.47
615.818	10.95
615.949	6.54
616.08	2.98
616.211	0.97
616.342	14.27
616.473	0.87
616.604	9.29
616.735	13.56
616.866	30.68
616.998	27.17
617.129	21.84
617.26	13.17
617.391	0.37
617.522	4.17
617.653	18.68
617.784	2.97
617.915	-6.61
618.046	3.27
618.177	0.57
618.308	-5.63
618.439	-3.71
618.57	12.19
618.701	-1.43
618.832	-3.94
618.963	-10.02
619.094	-7.31
619.225	-6.03
619.356	1.37
619.487	-6.4
619.618	-3.31
619.749	9.36
619.88	-10.11
620.011	-6.02
620.142	6.45
620.273	-3.03
620.404	2.57
620.535	7.44
620.665	7.66
620.796	11.77
620.927	8.28
621.058	24.04
621.189	15.71
621.32	19.3
621.451	19.79
621.582	6.63
621.713	11.07
621.844	-4.03
621.974	-1.33
622.105	0.17
622.236	-4.01
622.367	5.88
622.498	13.99
622.629	3.96
622.759	-4.22
622.89	7.98
623.021	-2.33
623.152	-5.43
623.283	6.15
623.414	-1.23
623.544	-12.32
623.675	-2.71
623.806	5.54
623.937	-6.63
624.067	-8.94
624.198	6.74
624.329	6.36
624.46	19.54
624.59	7.26
624.721	7.24
624.852	-3.22
624.983	6.36
625.113	-4.53
625.244	-4.99
625.375	0.87
625.506	4.67
625.636	1.96
625.767	-6.7
625.898	10.52
626.028	-5.13
626.159	0.07
626.29	0.57
626.42	12.55
626.551	-3.14
626.682	-0.33
626.812	-1.12
626.943	3.36
627.074	2.97
627.204	8.77
627.335	7.65
627.466	6.61
627.596	6.68
627.727	10.99
627.857	-7.71
627.988	6.16
628.119	5.87
628.249	5.77
628.38	13.49
628.51	-0.73
628.641	-5.52
628.772	14.09
628.902	2.06
629.033	16.76
629.163	2.37
629.294	17.88
629.424	22.39
629.555	22.23
629.685	16.87
629.816	3.87
629.946	0.17
630.077	8.48
630.207	5.88
630.338	17.6
630.468	21.29
630.599	20.11
630.729	14.29
630.86	4.98
630.99	10.86
631.121	7.56
631.251	-1.33
631.382	-4.34
631.512	5.65
631.643	6.13
631.773	-3.73
631.904	10.55
632.034	-5.31
632.164	-0.63
632.295	3.37
632.425	2.77
632.556	-10.94
632.686	3.45
632.816	-5.83
632.947	5.58
633.077	-6.3
633.208	5.96
633.338	-2.43
633.468	-6.53
633.599	0.27
633.729	-8.13
633.859	-2.64
633.99	11.9
634.12	-5.62
634.25	-5.93
634.381	-2.53
634.511	-2.73
634.641	-2.13
634.772	-3.52
634.902	1.87
635.032	2.07
635.163	-0.63
635.293	1.07
635.423	0.57
635.553	-0.83
635.684	-11.37
635.814	8.03
635.944	12.97
636.074	15.66
636.205	12.76
636.335	4.04
636.465	11.4
636.595	9.27
636.726	5.66
636.856	29.28
636.986	-10.74
637.116	4.38
637.246	8.46
637.377	-0.83
637.507	4.17
637.637	-0.33
637.767	6.95
637.897	5.73
638.027	12.46
638.158	18.79
638.288	26.39
638.418	11.93
638.548	-3.34
638.678	12.15
638.808	-3.22
638.938	-6.78
639.069	2.66
639.199	-6.64
639.329	-7.52
639.459	-0.63
639.589	-7.44
639.719	2.27
639.849	-1.73
639.979	-0.73
640.109	3.67
640.239	3.98
640.369	1.26
640.5	4.84
640.63	-0.03
640.76	18.27
640.89	7.31
641.02	20.99
641.15	5.47
641.28	22.4
641.41	40.6
641.54	33.47
641.67	18.61
641.8	14.77
641.93	4.76
642.06	2.47
642.19	-4.42
642.32	-0.13
642.45	3.04
642.58	6.85
642.71	-4.23
642.84	-1.83
642.97	11.27
643.1	-5.51
643.229	6.96
643.359	-15.34
643.489	-5
643.619	7.32
643.749	-2.63
643.879	-1.53
644.009	1.37
644.139	13.18
644.269	-0.53
644.399	21.55
644.529	1.96
644.658	6.74
644.788	-6.82
644.918	4.77
645.048	9.36
645.178	-5.32
645.308	0.47
645.438	10.26
645.567	-3.51
645.697	9.31
645.827	1.67
645.957	6.16
646.087	5.45
646.216	4.56
646.346	15.96
646.476	9.78
646.606	6.25
646.736	5.07
646.865	12.06
646.995	10.16
647.125	0.37
647.255	-5.09
647.384	0.77
647.514	-2.83
647.644	3.06
647.774	1.77
647.903	9.85
648.033	-5.12
648.163	8.45
648.293	-6.51
648.422	-4.63
648.552	-1.63
648.682	4.05
648.811	-5.12
648.941	-2.43
649.071	-7.42
649.2	7.91
649.33	6.07
649.46	4.37
649.589	4.87
649.719	10.55
649.849	1.76
649.978	-1.73
650.108	-0.23
650.238	7.24
650.367	-9.47
650.497	-2.13
650.626	2.77
650.756	6.23
650.886	0.57
651.015	-0.73
651.145	-7.01
651.274	2.35
651.404	8.73
651.534	-6.33
651.663	9.17
651.793	3.06
651.922	3.64
652.052	-13.61
652.181	-3.73
652.311	10.9
652.44	-1.23
652.57	-3.63
652.699	-4.73
652.829	-5.12
652.958	-2.42
653.088	10.5
653.217	1.27
653.347	14.57
653.476	10.86
653.606	0.27
653.735	15.61
653.865	-4.11
653.994	1.56
654.124	-3.94
654.253	-13.13
654.383	7.66
654.512	3.46
654.642	-2.43
654.771	-3.04
654.9	1.36
655.03	1.06
655.159	-0.43
655.289	13.75
655.418	8.12
655.547	1.26
655.677	4.56
655.806	1.96
655.936	6.02
656.065	14.22
656.194	5.96
656.324	6.29
656.453	-1.93
656.582	-6.5
656.712	2.47
656.841	11.57
656.97	14.44
657.1	4.84
657.229	0.57
657.358	-0.83
657.488	2.76
657.617	6.96
657.746	-8.23
657.876	2.17
658.005	-0.13
658.134	-3.62
658.263	-5.83
658.393	-2.63
658.522	6.33
658.651	14.27
658.78	-10.12
658.91	-7.02
659.039	7.27
659.168	8.03
659.297	1.07
659.427	15.18
659.556	9.52
659.685	9.97
659.814	8.18
659.943	9.56
660.073	15.39
660.202	13.56
660.331	25.91
660.46	13.26
660.589	3.56
660.719	-7.98
660.848	0.37
660.977	2.27
661.106	-10.64
661.235	10.92
661.364	5.67
661.493	8.96
661.623	1.27
661.752	5.34
661.881	-0.23
662.01	7.75
662.139	-7.3
662.268	7.16
662.397	-8.44
662.526	-7.21
662.655	-2.83
662.784	0.57
662.913	-0.63
663.043	3.66
663.172	11.08
663.301	-2.91
663.43	-2.23
663.559	-0.33
663.688	-0.83
663.817	5.65
663.946	6.57
664.075	-12.77
664.204	1.36
664.333	-12.44
664.462	0.67
664.591	-1.33
664.72	-7.58
664.849	0.57
664.978	8.26
665.107	6.56
665.236	5.95
665.365	1.96
665.494	5.57
665.623	14.1
665.751	7.62
665.88	17.08
666.009	9.58
666.138	10.67
666.267	22.61
666.396	19.66
666.525	6.16
666.654	-1.83
666.783	-6.31
666.912	4.35
667.041	6.46
667.169	7.96
667.298	11.22
667.427	9.71
667.556	15.4
667.685	5.87
667.814	2.57
667.943	7.05
668.071	9.46
668.2	9.19
668.329	3.86
668.458	-2.32
668.587	-4.23
668.716	4.27
668.844	1.16
668.973	2.16
669.102	8.17
669.231	10.55
669.359	9.85
669.488	12.44
669.617	4.56
669.746	14.59
669.875	11.44
670.003	3.17
670.132	-10.51
670.261	-3.13
670.389	2.37
670.518	-2.72
670.647	3.67
670.776	-0.23
670.904	-6.13
671.033	2.86
671.162	4.37
671.29	-2.93
671.419	19.45
671.548	1.77
671.676	-0.53
671.805	11.32
671.934	12
672.062	18
672.191	5.57
672.32	-0.13
672.448	1.26
672.577	9.22
672.706	0.27
672.834	3.37
672.963	10.58
673.092	8.03
673.22	12.88
673.349	-1.93
673.477	10.63
673.606	11.45
673.735	17.97
673.863	17.93
673.992	21.61
674.12	10.22
674.249	18.83
674.377	37.93
674.506	46.06
674.634	57.44
674.763	82.12
674.892	98.98
675.02	115.33
675.149	161.69
675.277	102.15
675.406	48.55
675.534	24.02
675.663	12.95
675.791	11.95
675.92	-3.83
676.048	19.42
676.176	16.38
676.305	17.63
676.433	21.16
676.562	33.65
676.69	6.34
676.819	4.26
676.947	8.97
677.076	-3.84
677.204	0.07
677.332	7.25
677.461	0.07
677.589	11.14
677.718	12.74
677.846	7.89
677.975	3.06
678.103	-20.79
678.231	4.55
678.36	1.87
678.488	-2.13
678.616	4.56
678.745	2.66
678.873	-0.53
679.001	6.86
679.13	6.08
679.258	6.14
679.386	7.45
679.515	3.36
679.643	0.37
679.771	3.95
679.9	-2.63
680.028	-7.04
680.156	3.16
680.285	9.74
680.413	2.07
680.541	4.56
680.669	9.22
680.798	7.65
680.926	3.97
681.054	2.17
681.182	-3.61
681.311	4.84
681.439	3.86
681.567	0.87
681.695	-4.93
681.824	9.38
681.952	-8.15
682.08	-0.03
682.208	-7.73
682.336	0.37
682.465	-2.13
682.593	-1.03
682.721	1.27
682.849	14.29
682.977	4.47
683.105	-0.93
683.234	-0.13
683.362	0.17
683.49	-10.62
683.618	-5.43
683.746	-2.32
683.874	3.17
684.002	-1.53
684.131	8.48
684.259	2.96
684.387	-0.43
684.515	9.18
684.643	-1.43
684.771	-3.82
684.899	1.67
685.027	1.37
685.155	4.66
685.283	0.27
685.411	20.03
685.539	6.75
685.667	10.56
685.796	14.73
685.924	21.79
686.052	13.05
686.18	27.47
686.308	36.52
686.436	59.82
686.564	58.39
686.692	86.54
686.82	99.79
686.948	125.91
687.076	113.76
687.204	49.51
687.332	24.23
687.459	23.54
687.587	15.82
687.715	8.16
687.843	24.63
687.971	25.99
688.099	14.95
688.227	18.02
688.355	35.16
688.483	24.14
688.611	32.98
688.739	22.47
688.867	13.63
688.995	1.36
689.122	-4.14
689.25	2.87
689.378	-9.07
689.506	-6.79
689.634	-7.22
689.762	3.07
689.89	4.96
690.018	16.01
690.145	-5.02
690.273	-1.33
690.401	4.65
690.529	4.17
690.657	13.35
690.784	-3.03
690.912	4.65
691.04	-3.21
691.168	18.16
691.296	0.77
691.423	10.11
691.551	8.25
691.679	5.87
691.807	4.56
691.935	10.87
692.062	10.12
692.19	8.86
692.318	8.86
692.446	16.41
692.573	20.97
692.701	20
692.829	36.19
692.956	22.73
693.084	27.44
693.212	42.75
693.34	34.64
693.467	50.57
693.595	59.47
693.723	49.74
693.85	22.83
693.978	19.68
694.106	11.24
694.233	14.64
694.361	9.04
694.489	12.76
694.616	34.38
694.744	34.97
694.871	33.87
694.999	42.91
695.127	48.9
695.254	54.24
695.382	55.64
695.509	82.74
695.637	90.69
695.765	125.89
695.892	146.59
696.02	191.59
696.147	196.19
696.275	245.38
696.403	308.62
696.53	225.04
696.658	88.64
696.785	22.45
696.913	4.86
697.04	14.82
697.168	6.14
697.295	12.94
697.423	6.65
697.55	-1.22
697.678	-0.33
697.805	8.75
697.933	3.87
698.06	-13.75
698.188	1.17
698.315	-0.33
698.443	9.47
698.57	5.46
698.698	9.21
698.825	7.46
698.952	8.57
699.08	4.78
699.207	6.08
699.335	-0.03
699.462	2.17
699.59	13.3
699.717	-1.82
699.844	-1.13
699.972	15.26
700.099	8.03
700.227	-5.79
700.354	3.17
700.481	-0.93
700.609	9.21
700.736	-0.83
700.863	-0.73
700.991	4.56
701.118	-1.42
701.245	10.61
701.373	-7.26
701.5	10.92
701.627	8.05
701.755	5.75
701.882	20.1
702.009	16.17
702.137	28.64
702.264	42.19
702.391	50.93
702.518	52.74
702.646	65.72
702.773	75.83
702.9	83.75
703.027	71.42
703.155	26.06
703.282	20.92
703.409	8.66
703.536	11.97
703.664	10.35
703.791	8.36
703.918	-1.73
704.045	21.3
704.172	17.57
704.3	14.76
704.427	1.67
704.554	23.34
704.681	9.87
704.808	18.91
704.936	14.26
705.063	23.82
705.19	29.51
705.317	35.47
705.444	51.3
705.571	60.44
705.698	75.32
705.826	91.07
705.953	125.48
706.08	150.05
706.207	175.62
706.334	213.9
706.461	257.77
706.588	333.26
706.715	270.64
706.842	137.17
706.969	40.08
707.096	8.68
707.224	7.84
707.351	18.59
707.478	-4.81
707.605	5.45
707.732	19.04
707.859	3.36
707.986	13
708.113	-0.13
708.24	6.56
708.367	8.46
708.494	8.74
708.621	7.37
708.748	8.05
708.875	0.37
709.002	-2.43
709.129	-8.72
709.256	-7
709.383	0.77
709.51	2.97
709.637	17.52
709.764	12.43
709.89	6.34
710.017	17.95
710.144	14.09
710.271	6.24
710.398	5.03
710.525	14.9
710.652	14.93
710.779	10.9
710.906	8.03
711.033	0.37
711.16	6.46
711.286	9.83
711.413	5.44
711.54	8.83
711.667	4.57
711.794	7.57
711.921	3.75
712.048	21.97
712.174	20.37
712.301	22.3
712.428	23.07
712.555	19.9
712.682	0.97
712.808	-6.23
712.935	5.06
713.062	0.47
713.189	-3.43
713.316	-1.43
713.442	12.54
713.569	2.07
713.696	7.17
713.823	21.18
713.949	20.8
714.076	23.21
714.203	27.1
714.33	20.52
714.456	34.48
714.583	44.11
714.71	31.6
714.837	14.43
714.963	7.25
715.09	12.94
715.217	10.46
715.343	18.5
715.47	7.63
715.597	12.77
715.723	20.12
715.85	13.52
715.977	10.45
716.103	11.14
716.23	-4.32
716.357	-1.23
716.483	5.65
716.61	-5.03
716.736	-1.83
716.863	0.96
716.99	0.37
717.116	0.17
717.243	-1.53
717.369	2.87
717.496	16.81
717.623	6.57
717.749	-4.32
717.876	-17.7
718.002	1.66
718.129	-1.53
718.255	2.27
718.382	2.36
718.509	-3.91
718.635	5.45
718.762	-4.52
718.888	3.34
719.015	2.46
719.141	2.26
719.268	7.66
719.394	15.24
719.521	10.46
719.647	15.69
719.774	14.75
719.9	28.02
720.027	45.7
720.153	34.86
720.279	40.43
720.406	56.7
720.532	60.82
720.659	59.16
720.785	27.76
720.912	3.95
721.038	1.07
721.165	-8.44
721.291	-9.03
721.417	-2.32
721.544	5.75
721.67	-5.63
721.797	-6.54
721.923	-2.42
722.049	4.84
722.176	-9.02
722.302	8.66
722.428	6.55
722.555	0.37
722.681	4.06
722.807	19.45
722.934	9.37
723.06	9.7
723.186	4.95
723.313	2.47
723.439	-9.95
723.565	-3.23
723.692	9.57
723.818	-6.93
723.944	1.17
724.07	-0.03
724.197	-7.04
724.323	13.35
724.449	2.96
724.576	12.65
724.702	8.83
724.828	8.04
724.954	-3.83
725.081	4.44
725.207	-0.53
725.333	8.37
725.459	17.44
725.585	6.96
725.712	19.36
725.838	9.36
725.964	26.13
726.09	37.18
726.216	53.75
726.343	52.59
726.469	54.71
726.595	47.29
726.721	59.24
726.847	71.57
726.973	77.18
727.099	99.5
727.226	89.4
727.352	42.8
727.478	4.56
727.604	7.04
727.73	3.47
727.856	-0.93
727.982	6.94
728.108	6.15
728.234	3.27
728.361	16
728.487	4.56
728.613	1.37
728.739	11.16
728.865	4.46
728.991	15.02
729.117	4.07
729.243	-6.22
729.369	4.26
729.495	3.95
729.621	4.25
729.747	7.33
729.873	4.07
729.999	24.47
730.125	13.62
730.251	15.85
730.377	24.2
730.503	28.66
730.629	28.35
730.755	39.83
730.881	37.03
731.007	56.86
731.133	49.86
731.259	20.86
731.385	36.49
731.511	30.68
731.637	1.67
731.763	-2.72
731.888	-2.23
732.014	5.05
732.14	1.37
732.266	11
732.392	0.97
732.518	5.85
732.644	-1.93
732.77	4.66
732.896	11.45
733.021	0.87
733.147	12.24
733.273	10.15
733.399	11.86
733.525	6.94
733.651	8.75
733.777	12.38
733.902	17.12
734.028	27.7
734.154	25.76
734.28	27.96
734.406	47.32
734.531	50.27
734.657	68.05
734.783	67.26
734.909	85.63
735.034	95.89
735.16	122.81
735.286	95.8
735.412	42.74
735.537	38.79
735.663	30.97
735.789	42.77
735.915	55.13
736.04	95.4
736.166	87.55
736.292	122.48
736.418	129.96
736.543	163.35
736.669	177.12
736.795	212.92
736.92	254.15
737.046	354.29
737.172	314.47
737.297	226.99
737.423	221.46
737.549	250.77
737.674	288.26
737.8	324.84
737.926	383.04
738.051	433.94
738.177	581.02
738.302	613.43
738.428	286.53
738.554	95.66
738.679	41.68
738.805	30.33
738.93	28.37
739.056	41.6
739.182	32.14
739.307	15.45
739.433	27.29
739.558	7.54
739.684	2.77
739.809	-3.73
739.935	17.66
740.06	6.24
740.186	20.14
740.311	10.45
740.437	9.75
740.562	17.44
740.688	9.21
740.813	21.95
740.939	16.81
741.064	20.48
741.19	32.4
741.315	27.58
741.441	19.56
741.566	30.84
741.692	6.43
741.817	20.46
741.943	26.62
742.068	31.89
742.194	35.48
742.319	44.74
742.444	37.82
742.57	31.85
742.695	22.62
742.821	28.18
742.946	18.89
743.071	29.04
743.197	38.86
743.322	5.28
743.448	38.14
743.573	29.1
743.698	16.07
743.824	1.37
743.949	13.95
744.074	5.45
744.2	-2.62
744.325	12.71
744.45	10.55
744.576	-2.23
744.701	7.96
744.826	6.24
744.952	8.18
745.077	6.36
745.202	16.41
745.327	1.97
745.453	26.62
745.578	13.89
745.703	10.03
745.828	10.64
745.954	17.34
746.079	10.06
746.204	16.17
746.329	24.42
746.455	17.59
746.58	23.85
746.705	24.21
746.83	12.46
746.956	25.97
747.081	37.13
747.206	35.23
747.331	34.19
747.456	43.34
747.582	46.87
747.707	55.71
747.832	55.39
747.957	69.04
748.082	75.85
748.207	95.25
748.332	109.53
748.458	118.03
748.583	134.92
748.708	177.92
748.833	215.59
748.958	289.66
749.083	387.57
749.208	517.26
749.333	672.25
749.458	863.47
749.584	981.34
749.709	1199.33
749.834	1365.47
749.959	1559.79
750.084	1909.12
750.209	2620.65
750.334	2185.57
750.459	1055.02
750.584	656.23
750.709	669.57
750.834	658.01
750.959	728.98
751.084	804.02
751.209	991.68
751.334	1252.82
751.459	731.23
751.584	224.11
751.709	77.14
751.834	30.33
751.959	38.56
752.084	17.18
752.209	17.84
752.334	4.86
752.459	14.68
752.584	20.95
752.709	-0.73
752.834	9.54
752.959	0.07
753.083	7.24
753.208	6.75
753.333	7.67
753.458	9.46
753.583	7.85
753.708	13.84
753.833	16.98
753.958	8.67
754.083	17.62
754.207	8.94
754.332	13.54
754.457	6.27
754.582	8.85
754.707	0.07
754.832	1.87
754.956	9.95
755.081	-2.42
755.206	3.96
755.331	-0.53
755.456	15.16
755.581	0.47
755.705	16.9
755.83	4.57
755.955	9.92
756.08	5.05
756.204	-0.83
756.329	4.87
756.454	13.04
756.579	4.36
756.703	-3.52
756.828	0.97
756.953	7.46
757.078	-1.73
757.202	12.74
757.327	-4.12
757.452	5.45
757.576	7.14
757.701	6.45
757.826	1.27
757.951	12.36
758.075	6.64
758.2	9.94
758.325	-7.62
758.449	12.73
758.574	16.86
758.699	6.65
758.823	12.62
758.948	6.84
759.072	-2.02
759.197	6.16
759.322	6.36
759.446	6.35
759.571	13.07
759.695	6.27
759.82	21.27
759.945	20.5
760.069	5.27
760.194	18.59
760.318	13.34
760.443	12.87
760.568	10.35
760.692	18.64
760.817	20.48
760.941	30.09
761.066	34.63
761.19	40.12
761.315	41.37
761.439	51.15
761.564	64.28
761.688	81.74
761.813	101.78
761.937	146.23
762.062	199.32
762.186	268.87
762.311	382.65
762.435	509.4
762.56	635.76
762.684	765.67
762.809	910.52
762.933	993.86
763.057	1078.76
763.182	1317.74
763.306	1826.09
763.431	1861.07
763.555	731.67
763.68	218.04
763.804	82.84
763.928	46.42
764.053	21.08
764.177	33.48
764.302	18.17
764.426	17.66
764.55	15.4
764.675	14.03
764.799	8.53
764.923	8.42
765.048	3.47
765.172	0.77
765.296	22.17
765.421	8.87
765.545	15.87
765.669	3.64
765.794	12.02
765.918	10.04
766.042	-1.72
766.167	24.71
766.291	11.23
766.415	11.03
766.539	19.56
766.664	11.45
766.788	9.16
766.912	28.46
767.036	7.55
767.161	9.13
767.285	7.03
767.409	6.48
767.533	7.07
767.658	-4.32
767.782	6.73
767.906	7.37
768.03	12.13
768.154	2.76
768.279	11.44
768.403	2.56
768.527	13.72
768.651	-2.42
768.775	5.37
768.899	5.45
769.024	10.52
769.148	-3.81
769.272	4.06
769.396	4.94
769.52	9.37
769.644	3.96
769.768	20.77
769.892	9.13
770.017	16.36
770.141	18.71
770.265	22.24
770.389	19.31
770.513	27.89
770.637	24.64
770.761	36.22
770.885	52.08
771.009	88.01
771.133	109.69
771.257	159.5
771.381	218.56
771.505	257.49
771.629	303.31
771.753	348.77
771.877	387.95
772.001	437.72
772.125	560.54
772.249	788.28
772.373	544.61
772.497	179.41
772.621	65.51
772.745	22.81
772.869	23.33
772.993	5.38
773.117	8.83
773.241	10.55
773.365	13.51
773.489	6.83
773.613	3.45
773.737	-6.05
773.861	14.99
773.985	-2.92
774.109	2.57
774.233	1.27
774.357	0.57
774.48	-0.83
774.604	-1.73
774.728	-3.92
774.852	8.09
774.976	4.75
775.1	0.87
775.224	-9.5
775.347	8.75
775.471	-5.51
775.595	0.76
775.719	2.77
775.843	-3.62
775.967	-5.03
776.09	0.37
776.214	12.94
776.338	-26.92
776.462	2.16
776.586	8.97
776.709	1.17
776.833	8.66
776.957	0.57
777.081	6.16
777.204	-2.33
777.328	-12.95
777.452	2.67
777.576	-3.31
777.699	-5.41
777.823	5.25
777.947	12.22
778.071	-0.83
778.194	5.36
778.318	-7.11
778.442	-1.42
778.565	1.77
778.689	7.23
778.813	-3.12
778.936	0.97
779.06	8.27
779.184	-0.63
779.307	10.07
779.431	0.27
779.555	-3.3
779.678	12.31
779.802	-3.43
779.926	2.06
780.049	-3.74
780.173	10.9
780.296	-17.06
780.42	-3.53
780.544	6.54
780.667	-10.64
780.791	5.78
780.914	-3.71
781.038	4.16
781.162	4.27
781.285	1.57
781.409	4.56
781.532	-7.21
781.656	10.26
781.779	1.47
781.903	1.07
782.026	-3.83
782.15	-11.38
782.273	6.06
782.397	0.57
782.52	2.17
782.644	-9.94
782.767	2.36
782.891	3.37
783.014	9.82
783.138	5.38
783.261	2.57
783.385	0.07
783.508	3.05
783.632	-2.82
783.755	3.95
783.879	8.65
784.002	0.87
784.125	8.35
784.249	4.15
784.372	-1.02
784.496	-3.62
784.619	3.07
784.742	-2.03
784.866	-1.13
784.989	12.58
785.113	8.35
785.236	6.76
785.359	2.07
785.483	12.34
785.606	6.17
785.729	8.26
785.853	8.87
785.976	14.18
786.099	10.41
786.223	2.97
786.346	0.67
786.469	-6.75
786.593	2.27
786.716	10.93
786.839	-2.72
786.962	0.07
787.086	8.53
787.209	1.47
787.332	16.74
787.455	-2.62
787.579	-0.13
787.702	4.07
787.825	9.07
787.948	10.01
788.072	10.45
788.195	7.07
788.318	22.06
788.441	23.82
788.565	29.92
788.688	22.67
788.811	32.51
788.934	42.67
789.057	37.8
789.181	13.07
789.304	10.46
789.427	-0.23
789.55	4.55
789.673	5.14
789.796	-0.23
789.919	-4.12
790.043	2.86
790.166	0.07
790.289	3.46
790.412	6.97
790.535	15.13
790.658	14.99
790.781	3.85
790.904	13.85
791.027	8.05
791.15	11.1
791.274	11.24
791.397	7.26
791.52	4.95
791.643	0.17
791.766	12.63
791.889	1.26
792.012	6.26
792.135	-0.63
792.258	6.24
792.381	1.07
792.504	8.88
792.627	8.54
792.75	16.32
792.873	5.53
792.996	4.95
793.119	12.37
793.242	21.62
793.365	31.41
793.488	35.38
793.611	67.71
793.734	115.05
793.857	199.5
793.98	293.77
794.103	350.26
794.226	362.43
794.348	381.35
794.471	456.41
794.594	662.03
794.717	722.78
794.84	303.42
794.963	87.51
795.086	28.63
795.209	22.91
795.332	11.77
795.454	3.26
795.577	6.36
795.7	-3.53
795.823	8.04
795.946	9.98
796.069	-1.43
796.192	9.56
796.314	6.17
796.437	10.65
796.56	4.76
796.683	13.3
796.806	-6.49
796.928	4.07
797.051	12.32
797.174	-0.53
797.297	12.05
797.42	0.27
797.542	4.85
797.665	3.96
797.788	3.55
797.911	4.74
798.033	5.86
798.156	11.31
798.279	16.84
798.402	14.21
798.524	8.39
798.647	2.76
798.77	17.06
798.892	8.07
799.015	19.37
799.138	16.52
799.26	29.69
799.383	39.76
799.506	65.21
799.628	127.1
799.751	180.66
799.874	261.58
799.996	283.51
800.119	298.87
800.242	376.49
800.364	479.42
800.487	686.05
800.609	522.77
800.732	416.05
800.855	396.37
800.977	399.25
801.1	467.62
801.222	584.12
801.345	771.09
801.468	409.7
801.59	109.62
801.713	41.89
801.835	17.72
801.958	17.09
802.08	17.65
802.203	-0.23
802.325	10.04
802.448	15.25
802.571	5.24
802.693	9.6
802.816	4.04
802.938	11.02
803.061	4.78
803.183	11.69
803.305	-1.42
803.428	7.97
803.55	16.98
803.673	8.51
803.795	13.31
803.918	11.11
804.04	2.15
804.163	8.92
804.285	16.6
804.408	19.12
804.53	13.62
804.652	19.93
804.775	18.83
804.897	29.57
805.02	16.65
805.142	30.81
805.264	29.01
805.387	18.99
805.509	-1.52
805.631	5.28
805.754	3.36
805.876	5.07
805.999	8.96
806.121	12.31
806.243	0.17
806.366	7.55
806.488	10.37
806.61	-6.1
806.733	2.87
806.855	3.66
806.977	1.26
807.099	5.27
807.222	19.18
807.344	8.25
807.466	12.58
807.589	15.18
807.711	20.87
807.833	16.05
807.955	34.16
808.078	18.41
808.2	12.27
808.322	18.77
808.444	35.75
808.566	23.83
808.689	26.6
808.811	107.63
808.933	45.01
809.055	64.57
809.177	87.96
809.3	135.27
809.422	252.88
809.544	481.14
809.666	754.43
809.788	797.39
809.911	843.82
810.033	1022.79
810.155	1464.33
810.277	1449.08
810.399	728.41
810.521	637
810.643	1230.73
810.765	2404.11
810.888	3016.86
811.01	2969.5
811.132	3379.51
811.254	4261.74
811.376	5820.79
811.498	3245.61
811.62	860.41
811.742	275.22
811.864	136.21
811.986	90.03
812.108	72.69
812.23	49.57
812.352	32.69
812.474	23.89
812.596	17.61
812.718	14.46
812.84	12.42
812.962	14.16
813.084	7.78
813.206	16.39
813.328	9.16
813.45	12.83
813.572	15.2
813.694	0.47
813.816	2.56
813.938	7.06
814.06	9.24
814.182	-2.63
814.304	12.61
814.426	5.73
814.548	5.25
814.67	10.52
814.792	14.96
814.914	8.24
815.036	3.67
815.157	-8.61
815.279	-2.33
815.401	5.35
815.523	3.87
815.645	6.24
815.767	0.97
815.889	1.77
816.01	13.31
816.132	2.75
816.254	9.17
816.376	9.35
816.498	4.96
816.62	8.24
816.741	7.24
816.863	10.02
816.985	10.11
817.107	12.67
817.229	10.32
817.35	10.14
817.472	11.59
817.594	0.67
817.716	13.5
817.838	15.67
817.959	0.87
818.081	5.74
818.203	-4.63
818.325	-3.12
818.446	-1.33
818.568	12.74
818.69	3.56
818.811	9.14
818.933	4.16
819.055	8.84
819.176	3.76
819.298	4.64
819.42	-3.52
819.542	-7.5
819.663	15.84
819.785	5.16
819.907	2.46
820.028	0.97
820.15	0.47
820.271	-1.13
820.393	9.56
820.515	-6.13
820.636	5.54
820.758	5.53
820.88	-2.81
821.001	4.96
821.123	2.07
821.244	4.65
821.366	5.34
821.487	5.57
821.609	0.17
821.731	11.04
821.852	2.87
821.974	-2.53
822.095	-4.6
822.217	-4.91
822.338	2.76
822.46	3.96
822.581	-0.13
822.703	5.05
822.824	-5.84
822.946	-4.13
823.067	-6.72
823.189	0.27
823.31	-9.62
823.432	10.02
823.553	-0.83
823.675	-2.02
823.796	-3.52
823.918	3.35
824.039	14.69
824.161	-3.51
824.282	3.86
824.404	2.86
824.525	-4.13
824.646	3.05
824.768	7.64
824.889	19.16
825.011	18.99
825.132	7.96
825.253	18.85
825.375	20.79
825.496	19.46
825.617	60.34
825.739	196.71
825.86	367.65
825.982	389.64
826.103	428.57
826.224	575.76
826.346	492.01
826.467	132.93
826.588	42.64
826.71	27.17
826.831	9.4
826.952	6.17
827.073	16.66
827.195	6.07
827.316	9.43
827.437	4.35
827.559	8.24
827.68	-1.83
827.801	6.05
827.922	-3.42
828.044	-0.13
828.165	0.07
828.286	7.22
828.407	2.75
828.529	0.47
828.65	-2.03
828.771	2.76
828.892	-1.13
829.013	0.47
829.135	4.17
829.256	-5.51
829.377	4.55
829.498	-6.8
829.619	-4.33
829.74	5.24
829.862	0.96
829.983	-4.8
830.104	-0.13
830.225	5.57
830.346	3.06
830.467	1.36
830.588	-19.91
830.709	1.87
830.831	1.07
830.952	4.92
831.073	14.99
831.194	11.78
831.315	-2.02
831.436	-3.02
831.557	-1.03
831.678	-0.43
831.799	3.66
831.92	1.76
832.041	4.26
832.162	0.27
832.283	-1.23
832.404	-7.28
832.525	0.87
832.646	3.76
832.767	12.38
832.888	8.9
833.009	14.83
833.13	8.75
833.251	3.65
833.372	1.07
833.493	0.87
833.614	-7.4
833.735	0.17
833.856	13.2
833.977	-2.52
834.098	5.85
834.219	-0.43
834.34	4.45
834.461	8.17
834.582	3.85
834.703	-0.23
834.824	2.45
834.945	2.27
835.066	15.73
835.186	13.89
835.307	-5.61
835.428	-0.73
835.549	-8.03
835.67	4.25
835.791	0.27
835.912	1.37
836.032	-4.54
836.153	-4.2
836.274	-0.03
836.395	12.29
836.516	-0.53
836.637	0.17
836.757	5.91
836.878	-6.32
836.999	-4.13
837.12	-4.51
837.241	4.55
837.361	-0.33
837.482	-5.43
837.603	4.84
837.724	13.18
837.844	10.77
837.965	11.85
838.086	14.98
838.207	29.13
838.327	22.13
838.448	-1.13
838.569	11.44
838.689	12.06
838.81	9.16
838.931	18.92
839.052	9
839.172	10.72
839.293	11.88
839.414	4.18
839.534	9.67
839.655	8.55
839.776	9.84
839.896	17.48
840.017	34.83
840.137	110.15
840.258	498.14
840.379	1066.72
840.499	1069.42
840.62	1357.77
840.741	711.04
840.861	159
840.982	63.06
841.102	37.76
841.223	21.98
841.344	29.41
841.464	21.15
841.585	44.84
841.705	71.6
841.826	301.24
841.946	1182.66
842.067	1949.17
842.187	2149.44
842.308	2148.85
842.428	717.42
842.549	185.47
842.669	76.81
842.79	43.32
842.91	28.13
843.031	19.68
843.151	12.16
843.272	19.49
843.392	13.56
843.513	6.43
843.633	6.35
843.754	16.2
843.874	19.44
843.995	-0.53
844.115	15.96
844.235	5.96
844.356	16.03
844.476	-0.43
844.597	-2.23
844.717	-3.73
844.837	-1.32
844.958	1.96
845.078	2.76
845.199	-11.49
845.319	2.56
845.439	-1.92
845.56	-10.95
845.68	-0.53
845.8	-43.12
845.921	3.46
846.041	1.87
846.161	-4.43
846.282	3.74
846.402	0.27
846.522	-6.63
846.643	2.06
846.763	2.66
846.883	-5.11
847.004	0.27
847.124	-4.53
847.244	-9.86
847.364	-5.31
847.485	-3.13
847.605	-1.83
847.725	-5.18
847.845	8.59
847.966	-2.53
848.086	4.86
848.206	10.31
848.326	-9.01
848.447	-1.03
848.567	-2.93
848.687	2.67
848.807	5.15
848.927	-2.53
849.047	2.46
849.168	-2.42
849.288	-3.3
849.408	-1.43
849.528	-1.23
849.648	0.97
849.768	4.15
849.889	-1.23
850.009	-7.01
850.129	-4.61
850.249	-3.52
850.369	7.74
850.489	6.43
850.609	2.27
850.729	-0.93
850.849	5.36
850.97	13.35
851.09	9.59
851.21	16.98
851.33	6.36
851.45	12.44
851.57	68.16
851.69	355.64
851.81	716.1
851.93	818.06
852.05	401.85
852.17	105.21
852.29	27.01
852.41	23.71
852.53	10.07
852.65	17.41
852.77	14.34
852.89	-5.32
853.01	10.88
853.13	-1.32
853.25	7.96
853.37	-2.23
853.49	5.34
853.61	-8.18
853.73	-7.33
853.85	-1.03
853.97	-14.44
854.09	3.35
854.209	-5.31
854.329	-3.32
854.449	-0.13
854.569	-1.03
854.689	0.87
854.809	2.16
854.929	5.55
855.049	-4.69
855.169	4.57
855.288	-6.84
855.408	1.56
855.528	-4.64
855.648	7.45
855.768	8.37
855.888	-4.91
856.007	0.07
856.127	-3.34
856.247	-4.33
856.367	7.94
856.487	-3.71
856.606	-4.31
856.726	-6.33
856.846	0.76
856.966	-3.32
857.086	-2.12
857.205	-16.02
857.325	0.87
857.445	-1.23
857.565	3.57
857.684	-2.63
857.804	4.74
857.924	-3.3
858.044	-2.63
858.163	-2.83
858.283	-4
858.403	5.37
858.522	-8.91
858.642	-2.63
858.762	0.57
858.881	3.25
859.001	4.46
859.121	3.56
859.24	-1.42
859.36	-0.13
859.48	7.75
859.599	-9.29
859.719	3.67
859.839	4.74
859.958	3.57
860.078	5.17
860.197	20.63
860.317	69.73
860.437	41.21
860.556	18.36
860.676	6.75
860.795	-5.49
860.915	2.57
861.034	5.77
861.154	-10.67
861.274	9.84
861.393	5.56
861.513	5.37
861.632	11.35
861.752	25.21
861.871	30.04
861.991	-0.23
862.11	-5.07
862.23	1.66
862.349	-5.61
862.469	-4.83
862.588	-5.61
862.708	-3.22
862.827	5.66
862.947	-6.23
863.066	9.84
863.186	-10.98
863.305	3.58
863.424	4.37
863.544	-1.53
863.663	1.36
863.783	-2.83
863.902	-9.13
864.022	-0.23
864.141	3.16
864.26	-4.13
864.38	9.85
864.499	-5.11
864.619	1.06
864.738	-2.02
864.857	4.77
864.977	3.64
865.096	-0.53
865.215	-3.43
865.335	-5.92
865.454	-0.23
865.573	-6.93
865.693	-0.83
865.812	-0.03
865.931	-19.79
866.051	4.13
866.17	0.67
866.289	5.16
866.408	44.26
866.528	198.23
866.647	134.44
866.766	37.52
866.886	9.86
867.005	-4.92
867.124	3.87
867.243	-1.93
867.363	-4.4
867.482	6.37
867.601	15.2
867.72	14.67
867.839	4.53
867.959	-3.91
868.078	-2.03
868.197	-7.11
868.316	-5.8
868.435	-4.1
868.555	19.26
868.674	8.36
868.793	11.27
868.912	1.46
869.031	-7.53
869.15	1.86
869.27	1.06
869.389	0.37
869.508	-3.02
869.627	-1.43
869.746	-2.22
869.865	8.51
869.984	-6.82
870.103	8.96
870.222	-5.01
870.341	8.27
870.461	0.17
870.58	3.47
870.699	-4.09
870.818	-0.33
870.937	4.06
871.056	2.27
871.175	2.75
871.294	11.77
871.413	7.75
871.532	3.97
871.651	13.15
871.77	4.42
871.889	6.84
872.008	6.08
872.127	-6.98
872.246	-8.67
872.365	-2.93
872.484	-6.12
872.603	-0.93
872.722	-1.63
872.841	-0.63
872.96	-4.14
873.079	-2.93
873.198	-4.32
873.316	-3.94
873.435	21.91
873.554	5.74
873.673	-1.03
873.792	5.77
873.911	-1.53
874.03	-1.63
874.149	1.27
874.268	-4.23
874.387	-8.04
874.505	-4.72
874.624	-3.52
874.743	-8.62
874.862	-3.43
874.981	8.74
875.1	-1.52
875.218	-7.03
875.337	-15.96
875.456	8.34
875.575	-9.42
875.694	2.57
875.813	9.35
875.931	68.64
876.05	24.87
876.169	7.64
876.288	19.33
876.406	7.53
876.525	-10.25
876.644	13.66
876.763	0.77
876.881	28.07
877	5.07
877.119	-5.64
877.238	-4.21
877.356	-4.72
877.475	9.49
877.594	-0.63
877.712	16.91
877.831	-0.92
877.95	-1.62
878.068	-3.23
878.187	-2.03
878.306	-4.81
878.424	-2.22
878.543	-4.42
878.662	3.96
878.78	-2.22
878.899	-3.52
879.018	-0.23
879.136	1.17
879.255	-0.43
879.374	5.94
879.492	0.67
879.611	23.47
879.729	20.04
879.848	-4.4
879.966	1.97
880.085	-5.42
880.204	1.56
880.322	12.48
880.441	0.37
880.559	5.04
880.678	1.86
880.796	11.82
880.915	-5.73
881.033	-1.03
881.152	-4.71
881.27	-8.67
881.389	5.87
881.507	1.27
881.626	1.46
881.744	7.33
881.863	5.96
881.981	12.86
882.1	-12.42
882.218	-2.02
882.337	-6.11
882.455	-5.02
882.574	-7.72
882.692	-8.67
882.81	3.47
882.929	3.66
883.047	2.46
883.166	-6.7
883.284	-1.93
883.403	3.57
883.521	8.11
883.639	29.95
883.758	10.36
883.876	-5.73
883.994	10.1
884.113	-1.42
884.231	5.17
884.349	2.67
884.468	-2.81
884.586	-1.61
884.705	15.57
884.823	25.28
884.941	7.24
885.059	11.94
885.178	-4.44
885.296	0.87
885.414	6.61
885.533	-3.23
885.651	0.77
885.769	-15.22
885.887	-4.3
886.006	11.22
886.124	0.57
886.242	1.86
886.36	16.14
886.479	-2.12
886.597	2.37
886.715	2.17
886.833	11.3
886.952	-1.52
887.07	1.17
887.188	7.17
887.306	-10.04
887.424	9.51
887.543	2.67
887.661	-6.72
887.779	5.14
887.897	7.7
888.015	-7.41
888.133	5.85
888.251	-3.71
888.37	1.07
888.488	3.67
888.606	0.47
888.724	1.76
888.842	-2.51
888.96	6.55
889.078	-4.43
889.196	2.84
889.314	0.27
889.433	11.37
889.551	-1.33
889.669	2.76
889.787	9.65
889.905	4.95
890.023	-15.41
890.141	-5
890.259	10.55
890.377	-1.83
890.495	3.45
890.613	-4.49
890.731	2.55
890.849	10.76
890.967	-4.82
891.085	1.96
891.203	-0.82
891.321	-7.63
891.439	5.07
891.557	2.05
891.675	-2.12
891.793	0.17
891.911	-1.93
892.029	3.75
892.147	1.17
892.265	-8.03
892.383	0.47
892.5	-2.71
892.618	-6.19
892.736	-4.23
892.854	6.76
892.972	0.66
893.09	9.57
893.208	3.96
893.326	-7.85
893.444	3.85
893.561	7.78
893.679	-7.13
893.797	5.07
893.915	4.25
894.033	-0.83
894.151	-1.43
894.268	0.07
894.386	-3.3
894.504	-20.34
894.622	-2.03
894.74	-1.53
894.857	-0.23
894.975	10.13
895.093	-3.53
895.211	-4.43
895.329	-2.22
895.446	-7.88
895.564	-3.02
895.682	0.27
895.8	-2.33
895.917	7.12
896.035	3.07
896.153	10.4
896.271	-6.19
896.388	-5.51
896.506	0.37
896.624	-2.53
896.741	2.66
896.859	0.27
896.977	0.77
897.094	-5.52
897.212	0.77
897.33	-7.99
897.447	-0.83
897.565	-3.42
897.683	-10.5
897.8	-4.21
897.918	-6.13
898.036	-15.23
898.153	-3.91
898.271	4.07
898.388	4.77
898.506	-1.03
898.624	10.69
898.741	4.47
898.859	0.97
898.976	3.16
899.094	7.97
899.211	-2.03
899.329	-1.13
899.447	-3.93
899.564	-1.92
899.682	-1.93
899.799	-3.84
899.917	2.46
900.034	-3.42
900.152	2.95
900.269	-4.91
900.387	-0.73
900.504	-0.13
900.622	-5.5
900.739	1.27
900.857	1.67
900.974	10.23
901.092	-5.91
901.209	11
901.326	3.36
901.444	-3.81
901.561	-6.99
901.679	8.85
901.796	0.17
901.914	-5.49
902.031	8.44
902.148	15.89
902.266	4.75
902.383	2.55
902.501	-4.62
902.618	-5.12
902.735	-8.53
902.853	-1.53
902.97	-10.2
903.087	-13.53
903.205	3.17
903.322	6.61
903.439	1.27
903.557	-0.53
903.674	0.07
903.791	9.6
903.909	1.06
904.026	0.87
904.143	-4.22
904.261	-4.5
904.378	-8.47
904.495	6.57
904.612	-13.14
904.73	-5.01
904.847	-4.11
904.964	-6.12
905.081	-7.31
905.199	8.63
905.316	9.01
905.433	-8.93
905.55	-2.63
905.668	0.27
905.785	-0.63
905.902	7.35
906.019	4.57
906.136	-4
906.254	0.77
906.371	0.37
906.488	8.25
906.605	-1.82
906.722	8.31
906.839	-9.42
906.957	-3.73
907.074	31.76
907.191	0.86
907.308	22.53
907.425	3.17
907.542	4.26
907.659	8.01
907.776	-0.23
907.893	-12.58
908.011	1.06
908.128	-4.21
908.245	-11.04
908.362	-5.73
908.479	-1.52
908.596	5.45
908.713	13.07
908.83	-11.61
908.947	-8.86
909.064	-5.83
909.181	4.68
909.298	1.77
909.415	-8.89
909.532	1.76
909.649	-2.43
909.766	3.57
909.883	-8.29
910	13.67
910.117	-1.43
910.234	5.14
910.351	-10.87
910.468	-3.33
910.585	0.27
910.702	-5.84
910.819	2.35
910.936	8.95
911.053	8.35
911.17	4.78
911.287	15.47
911.403	6.54
911.52	7.76
911.637	21.5
911.754	47.98
911.871	159.78
911.988	917.07
912.105	1997.26
912.222	845.06
912.338	439.66
912.455	310.7
912.572	245.34
912.689	154.66
912.806	89.01
912.923	39.43
913.039	33.49
913.156	20.82
913.273	2.86
913.39	17.32
913.507	6.66
913.623	7.53
913.74	3.64
913.857	0.17
913.974	8.26
914.091	-1.92
914.207	1.75
914.324	-2.03
914.441	-3.23
914.558	0.76
914.674	-3.92
914.791	1.17
914.908	2.47
915.024	-13.16
915.141	2.15
915.258	14.79
915.375	5.67
915.491	1.36
915.608	-3.7
915.725	-4.84
915.841	5.17
915.958	-10.14
916.075	-4.98
916.191	4.37
916.308	15.24
916.425	3.95
916.541	7.57
916.658	3.86
916.774	0.27
916.891	1.96
917.008	-5.3
917.124	2.66
917.241	2.58
917.357	8.24
917.474	-1.22
917.591	-3.83
917.707	-2.63
917.824	3.23
917.94	5.55
918.057	3.57
918.173	0.07
918.29	3.06
918.406	-4.4
918.523	-3.52
918.639	-0.33
918.756	-1.93
918.872	4.05
918.989	12.39
919.105	8.34
919.222	31.47
919.338	25.64
919.455	17.07
919.571	12.67
919.688	11.03
919.804	-35.86
919.921	12.84
920.037	-8.01
920.154	2.06
920.27	-1.62
920.386	6.84
920.503	-6.13
920.619	-3.02
920.736	1.26
920.852	-10.13
920.968	15.88
921.085	-2.01
921.201	5.13
921.318	9.08
921.434	11.96
921.55	3.36
921.667	12.59
921.783	7.37
921.899	14.83
922.016	28.69
922.132	219.16
922.248	449.48
922.365	222.85
922.481	118.29
922.597	75.55
922.714	58.34
922.83	62.23
922.946	32.39
923.062	20.9
923.179	14.39
923.295	5.06
923.411	-3.42
923.527	4.05
923.644	-5.73
923.76	8.46
923.876	4.05
923.992	5.65
924.109	13.66
924.225	-0.23
924.341	3.85
924.457	0.47
924.573	4.57
924.69	9.16
924.806	1.76
924.922	0.37
925.038	-5.73
925.154	2.26
925.27	5.17
925.387	-4.8
925.503	-6.82
925.619	-3.53
925.735	-4.12
925.851	0.96
925.967	2.27
926.083	3.37
926.199	2.86
926.316	-3.81
926.432	-2.93
926.548	1.57
926.664	-3.71
926.78	-0.13
926.896	-5.13
927.012	1.07
927.128	2.76
927.244	10.52
927.36	3.96
927.476	2.26
927.592	-6.22
927.708	5.14
927.824	5.28
927.94	-9.21
928.056	-8.48
928.172	-1.52
928.288	4.78
928.404	-8.51
928.52	-4.93
928.636	9.84
928.752	9.26
928.868	13.47
928.984	11.01
929.1	9.83
929.216	6.07
929.332	7.55
929.448	8.12
929.564	9.69
929.68	-3.62
929.796	3.66
929.911	4.64
930.027	-2.73
930.143	3.67
930.259	-6.33
930.375	0.17
930.491	-9.57
930.607	-15.63
930.723	-2.43
930.838	5.13
930.954	3.67
931.07	0.57
931.186	-4.83
931.302	-2.02
931.418	2.85
931.533	-11.3
931.649	-2.43
931.765	0.57
931.881	3.15
931.997	8.66
932.112	-34.44
932.228	-8.28
932.344	-20.15
932.46	-11.93
932.576	-10.53
932.691	-1.72
932.807	6.16
932.923	2.06
933.038	6.76
933.154	8.25
933.27	-0.83
933.386	2.56
933.501	-1.63
933.617	5.57
933.733	14.25
933.848	-2.43
933.964	-1.63
934.08	4.43
934.195	7.31
934.311	1.37
934.427	0.97
934.542	6.45
934.658	-3.9
934.774	10.16
934.889	7.16
935.005	6.55
935.121	22.27
935.236	19.42
935.352	14.26
935.467	14.14
935.583	1.57
935.699	7.95
935.814	-2.03
935.93	1.46
936.045	5.54
936.161	8.04
936.276	-3.24
936.392	-0.63
936.507	4.64
936.623	0.07
936.739	-6.33
936.854	-1.82
936.97	1.46
937.085	3.26
937.201	-6.82
937.316	-1.33
937.432	0.57
937.547	2.67
937.663	-6.52
937.778	-5.97
937.893	-12.26
938.009	-8.41
938.124	2.26
938.24	-6.4
938.355	-1.42
938.471	7.06
938.586	6.64
938.702	5.84
938.817	0.57
938.932	-1.53
939.048	1.07
939.163	-2.72
939.279	-1.52
939.394	5.78
939.509	-1.82
939.625	-4.82
939.74	14.99
939.855	0.27
939.971	-25.43
940.086	9.41
940.201	-6.4
940.317	-0.13
940.432	2.46
940.547	2.57
940.663	8.02
940.778	5.48
940.893	-4.73
941.009	-4.11
941.124	-15.65
941.239	1.67
941.355	-0.23
941.47	-4.4
941.585	8.92
941.7	-2.33
941.816	14.27
941.931	-13.24
942.046	-6.7
942.161	6.87
942.276	-0.43
942.392	-2.31
942.507	-4.61
942.622	2.16
942.737	-2.23
942.852	5.85
942.968	-4.31
943.083	1.87
943.198	4.35
943.313	6.74
943.428	3.73
943.544	-9.31
943.659	0.57
943.774	-0.93
943.889	6.97
944.004	-3.23
944.119	-1.33
944.234	9.89
944.349	1.97
944.465	-3.52
944.58	-11.71
944.695	-3.7
944.81	-2.02
944.925	9.75
945.04	-8.43
945.155	1.36
945.27	-4.09
945.385	-14.52
945.5	16.99
945.615	5.55
945.73	12.35
945.845	-5.03
945.96	0.17
946.075	-4.11
946.19	-2.32
946.305	7.34
946.42	6.65
946.535	1.86
946.65	5.63
946.765	1.37
946.88	-9.53
946.995	-3.31
947.11	-0.53
947.225	-1.43
947.34	-7.72
947.455	0.97
947.57	-154.82
947.685	2.26
947.8	-3.52
947.915	2.95
948.03	-12.26
948.144	-8.72
948.259	6.46
948.374	7.12
948.489	-4.3
948.604	0.37
948.719	4.06
948.834	9.45
948.949	2.05
949.063	-0.43
949.178	1.87
949.293	-8.07
949.408	0.56
949.523	-0.83
949.638	9.55
949.752	-2.12
949.867	-12.24
949.982	-6.73
950.097	-3.12
950.212	-0.73
950.326	2.85
950.441	-2.63
950.556	-9.33
950.671	6.25
950.785	2.96
950.9	5.45
951.015	-6.63
951.13	12.67
951.244	-0.33
951.359	6.95
951.474	-3.93
951.588	2.65
951.703	-0.33
951.818	4.75
951.932	-8.62
952.047	-7.88
952.162	-4.99
952.277	0.87
952.391	3.76
952.506	-3.02
952.62	2.95
952.735	-3.92
952.85	1.67
952.964	7.14
953.079	5.97
953.194	4.37
953.308	0.77
953.423	-3.41
953.537	-3.02
953.652	1.77
953.767	6.57
953.881	7.76
953.996	3.06
954.11	3.37
954.225	3.17
954.339	-4.32
954.454	-0.43
954.569	5.27
954.683	-3.53
954.798	4.55
954.912	-7.91
955.027	-10.53
955.141	0.07
955.256	-1.02
955.37	-12.87
955.485	-3.32
955.599	2.37
955.714	-8.92
955.828	-0.53
955.943	-2.93
956.057	-4.13
956.171	-0.43
956.286	4.05
956.4	2.17
956.515	-4.03
956.629	-1.33
956.744	0.76
956.858	3.56
956.972	9.36
957.087	10.5
957.201	0.97
957.316	-8.82
957.43	-17.66
957.544	2.66
957.659	-3.53
957.773	-6.13
957.887	4.37
958.002	-0.13
958.116	2.16
958.23	9.05
958.345	2.16
958.459	-8.96
958.573	3.24
958.688	-0.13
958.802	-5.1
958.916	-1.32
959.031	-11.16
959.145	3.37
959.259	-1.03
959.373	4.96
959.488	2.46
959.602	-7.12
959.716	-3.93
959.831	-8.97
959.945	5.84
960.059	-5.42
960.173	-1.32
960.287	-2.62
960.402	-8.6
960.516	3.26
960.63	-4.33
960.744	2.77
960.858	-7.89
960.973	-1.43
961.087	-6.42
961.201	6.44
961.315	-10.93
961.429	5.86
961.543	1.56
961.658	4.45
961.772	4.16
961.886	3.95
962	-3.22
962.114	-1.33
962.228	-4.3
962.342	1.07
962.456	4.47
962.571	-0.83
962.685	0.37
962.799	-2.43
962.913	-4.23
963.027	-10.71
963.141	-4.64
963.255	-8.71
963.369	-7.81
963.483	2.76
963.597	2.06
963.711	-5.42
963.825	-2.13
963.939	-4.2
964.053	0.27
964.167	5.46
964.281	-0.23
964.395	8.24
964.509	-5.93
964.623	4.85
964.737	-4.82
964.851	-0.23
964.965	0.27
965.079	12.64
965.193	12.76
965.307	37.11
965.421	124.63
965.535	255.69
965.649	144.53
965.762	107.63
965.876	77.57
965.99	49.73
966.104	56.46
966.218	35.01
966.332	39.88
966.446	30.98
966.56	28.19
966.674	21.14
966.787	15.29
966.901	17.29
967.015	14.97
967.129	-1.62
967.243	8.46
967.357	-1.33
967.47	9.04
967.584	-4.72
967.698	-6.52
967.812	-2.72
967.926	0.57
968.039	-1.52
968.153	2.65
968.267	0.77
968.381	0.57
968.494	-1.22
968.608	-2.91
968.722	-0.23
968.836	1.37
968.949	4.76
969.063	-1.03
969.177	-9.12
969.291	-1.83
969.404	11.29
969.518	-2.11
969.632	-5.14
969.745	-3.42
969.859	1.96
969.973	-0.23
970.086	0.77
970.2	8.74
970.314	5.74
970.427	-5.4
970.541	6.57
970.655	-1.53
970.768	1.97
970.882	-2.22
970.996	-1.53
971.109	-8.31
971.223	-1.53
971.336	-2.72
971.45	2.56
971.564	3.96
971.677	4.06
971.791	-2.92
971.904	1.97
972.018	4.57
972.131	-4.32
972.245	-7.4
972.358	6.96
972.472	-0.03
972.586	5.86
972.699	15.71
972.813	123.56
972.926	-9.42
973.04	-5.14
973.153	-0.13
973.267	-3.92
973.38	-0.23
973.493	16.19
973.607	2.66
973.72	-7.24
973.834	-78.27
973.947	2.75
974.061	11.75
974.174	-10.93
974.288	-6.73
974.401	11.96
974.514	1.86
974.628	0.87
974.741	-4.42
974.855	-6.73
974.968	-1.73
975.081	-1.03
975.195	-4.02
975.308	-5.25
975.422	-8.19
975.535	4.95
975.648	-3.22
975.762	-5.28
975.875	7.36
975.988	5.55
976.102	0.17
976.215	-6
976.328	0.56
976.442	-0.93
976.555	-4.84
976.668	-11.53
976.781	3.55
976.895	-1.22
977.008	3.46
977.121	-1.33
977.235	-21.7
977.348	4.97
977.461	4.37
977.574	-8.81
977.688	6.33
977.801	-5.41
977.914	8.14
978.027	2.36
978.14	19.44
978.254	15.85
978.367	15.99
978.48	10.95
978.593	7.56
978.706	9.43
978.82	1.37
978.933	7.94
979.046	6.12
979.159	3.96
979.272	4.26
979.385	3.94
979.498	10.46
979.612	-5.85
979.725	-1.23
979.838	11.95
979.951	7.44
980.064	-7.73
980.177	1.96
980.29	6.63
980.403	2.86
980.516	0.07
980.629	-5.63
980.743	9.82
980.856	-6.73
980.969	-9.91
981.082	-0.93
981.195	5.84
981.308	1.26
981.421	-4.42
981.534	5.36
981.647	-0.83
981.76	-4.11
981.873	-3.93
981.986	0.27
982.099	3.56
982.212	9.43
982.325	-2.33
982.438	-8.92
982.551	-2.53
982.664	4.46
982.777	2.77
982.889	-3.13
983.002	9.44
983.115	1.47
983.228	2.86
983.341	1.76
983.454	1.36
983.567	-0.63
983.68	-10.7
983.793	-4.12
983.906	-5.92
984.019	-3.83
984.131	7.04
984.244	-3.22
984.357	7.75
984.47	11.86
984.583	-5.73
984.696	-2.13
984.808	3.26
984.921	-8.09
985.034	-2.13
985.147	9.56
985.26	-1.72
985.373	1.16
985.485	12.54
985.598	4.16
985.711	-4.24
985.824	-2.22
985.936	-0.33
986.049	5.14
986.162	-0.83
986.275	-6.09
986.387	0.97
986.5	6.77
986.613	-0.13
986.726	-5.09
986.838	-2.92
986.951	3.87
987.064	5.45
987.176	-2.52
987.289	5.57
987.402	2.76
987.514	8.82
987.627	-3.91
987.74	-4.63
987.852	-1.92
987.965	-1.82
988.078	6.84
988.19	6.27
988.303	9.36
988.416	-1.83
988.528	2.66
988.641	3.97
988.753	-1.73
988.866	-0.53
988.979	-5.51
989.091	-6.5
989.204	-0.13
989.316	-6.89
989.429	0.97
989.541	8.05
989.654	-1.93
989.767	3.46
989.879	5.86
989.992	-2.82
990.104	-0.03
990.217	-6.21
990.329	-3.82
990.442	2.07
990.554	2.57
990.667	-0.53
990.779	-0.23
990.892	4.26
991.004	-2.32
991.117	-6.02
991.229	-3.72
991.342	8.16
991.454	-5.51
991.566	2.37
991.679	1.47
991.791	4.16
991.904	-5.83
992.016	6.82
992.129	-2.02
992.241	-1.03
992.353	3.46
992.466	5.94
992.578	-2.12
992.691	3.47
992.803	-1.33
992.915	7.56
993.028	-4.02
993.14	9.87
993.252	-7.23
993.365	8.65
993.477	4.07
993.589	8.66
993.702	0.27
993.814	-4.53
993.926	0.47
994.039	-12.63
994.151	-2.62
994.263	5.92
994.375	4.85
994.488	-8.93
994.6	1.17
994.712	-5.1
994.824	0.87
994.937	-2.13
995.049	-2.13
995.161	-2.32
995.273	-1.22
995.386	1.67
995.498	0.87
995.61	-7.39
995.722	4.15
995.834	-0.83
995.947	7.75
996.059	2.66
996.171	-4.03
996.283	10.86
996.395	8.96
996.507	0.47
996.62	7.92
996.732	12.54
996.844	8.84
996.956	10.91
997.068	1.96
997.18	-4.02
997.292	-3.82
997.404	-7.89
997.517	-4.64
997.629	-10.05
997.741	7.55
997.853	-13.31
997.965	15.09
998.077	-7.13
998.189	-56.92
998.301	0.47
998.413	-5.02
998.525	6.05
998.637	-10.01
998.749	-0.82
998.861	-2.72
998.973	6.98
999.085	17.74
999.197	-1.72
999.309	4.66
999.421	4.56
999.533	6.07
999.645	-9.16
999.757	-0.53
999.869	-5.11
999.981	-2.03
1000.093	-0.53
1000.205	-0.53
1000.317	-7.94
1000.429	-0.83
1000.541	-14.61
1000.653	-3.21
1000.765	0.97
1000.876	-6.31
1000.988	5.55
1001.1	-3.72
1001.212	-3.72
1001.324	10.35
1001.436	10.16
1001.548	7.14
1001.66	-4.43
1001.771	-1.33
1001.883	-6.79
1001.995	-5.72
1002.107	-9.24
1002.219	3.46
1002.331	4.55
1002.442	4.27
1002.554	-7.22
1002.666	1.96
1002.778	-9
1002.89	14.52
1003.001	-1.33
1003.113	-3.54
1003.225	3.27
1003.337	-0.73
1003.448	0.77
1003.56	-5.61
1003.672	2.46
1003.784	-6.3
1003.895	-2.03
1004.007	3.07
1004.119	-0.03
1004.231	-3.02
1004.342	-10.22
1004.454	-6.81
1004.566	-1.22
1004.677	-9.89
1004.789	-7.6
1004.901	6.05
1005.012	6.92
1005.124	15.84
1005.236	5.26
1005.347	7.14
1005.459	-14.29
1005.571	-1.23
1005.682	5.26
1005.794	-4.03
1005.905	2.07
1006.017	0.07
1006.129	-6.82
1006.24	-0.93
1006.352	10.48
1006.463	-8.49
1006.575	0.87
1006.686	-1.13
1006.798	-5.2
1006.91	-6.93
1007.021	-4.12
1007.133	-1.03
1007.244	-4.51
1007.356	6.96
1007.467	-2.72
1007.579	-9.62
1007.69	-9.76
1007.802	3.36
1007.913	-4.91
1008.025	-6.63
1008.136	9.93
1008.248	5.75
1008.359	10.34
1008.471	4.06
1008.582	-5.6
1008.693	2.06
1008.805	15.45
1008.916	-4.32
1009.028	-1.02
1009.139	-1.43
1009.251	2.27
1009.362	-1.72
1009.473	3.66
1009.585	-8.72
1009.696	-18.85
1009.808	-0.63
1009.919	4.96
1010.03	8.37
1010.142	-6.21
1010.253	-2.43
1010.364	4.05
1010.476	8.81
1010.587	-5.72
1010.698	-6.13
1010.81	-2.22
1010.921	1.97
1011.032	10.56
1011.144	9.84
1011.255	-11.4
1011.366	-8.81
1011.478	-0.73
1011.589	-11.12
1011.7	-1.92
1011.811	6.75
1011.923	-1.13
1012.034	-1.33
1012.145	14.02
1012.256	3.66
1012.368	-5.1
1012.479	-2.93
1012.59	11.42
1012.701	-2.02
1012.812	2.36
1012.924	-0.23
1013.035	-11.16
1013.146	-6.31
1013.257	2.27
1013.368	-0.83
1013.48	-4.52
1013.591	12.89
1013.702	5.96
1013.813	-6.9
1013.924	3.15
1014.035	-7.74
1014.146	4.25
1014.257	9.05
1014.369	-10.3
1014.48	2.46
1014.591	-0.63
1014.702	11.66
1014.813	0.87
1014.924	-3.61
1015.035	-7.13
1015.146	-11.79
1015.257	-5.95
1015.368	6.15
1015.479	-10.11
1015.59	1.57
1015.701	-17.37
1015.812	4.76
1015.924	2.27
1016.035	-0.83
1016.146	-5.74
1016.257	-11.61
1016.368	6.36
1016.479	-9.81
1016.59	-1.83
1016.7	2.66
1016.811	0.47
1016.922	3.75
1017.033	9.94
1017.144	-0.63
1017.255	9.18
1017.366	7.15
1017.477	0.67
1017.588	-3.12
1017.699	0.47
1017.81	3.46
1017.921	10.63
1018.032	7.06
1018.143	1.17
1018.253	6.43
1018.364	-1.22
1018.475	4.77
1018.586	-13.54
1018.697	-1.53
1018.808	-4.72
1018.919	7.04
1019.029	-4.02
1019.14	4.87
1019.251	-8.81
1019.362	-3.22
1019.473	-6.84
1019.584	-3.62
1019.694	14.3
1019.805	2.06
1019.916	-11.94
1020.027	12.76
1020.137	4.66
1020.248	0.47
1020.359	1.86
1020.47	-9.5
1020.581	-10.79
1020.691	-3.32
1020.802	-2.62
1020.913	4.96
1021.023	-0.83
1021.134	2.55
1021.245	-8.69
1021.356	10.55
1021.466	-10.31
1021.577	6.44
1021.688	7.54
1021.798	4.56
1021.909	-4.31
1022.02	-7.19
1022.13	-7.62
1022.241	1.07
1022.352	3.67
1022.462	-8
1022.573	10.45
1022.683	-5.22
1022.794	7.91
1022.905	-8.3
1023.015	7.44
1023.126	-13.92
1023.236	1.07
1023.347	-2.32
1023.458	9.05
1023.568	2.26
1023.679	-4.61
1023.789	-0.13
1023.9	2.86
1024.01	5.25
1024.121	7.64
1024.231	3.16
1024.342	-0.73
1024.453	1.87
1024.563	3.56
1024.674	-0.43
1024.784	2.27
1024.895	5.05
1025.005	1.06
1025.116	2.07
1025.226	0.47
1025.336	8.17
1025.447	-4.62
1025.557	0.97
1025.668	-0.03
1025.778	-4.23
1025.889	0.37
1025.999	-2.72
1026.11	-4.02
1026.22	-4.22
1026.33	9.61
1026.441	-4.3
1026.551	0.47
1026.662	10.18
1026.772	-1.33
1026.882	-11.26
1026.993	1.67
1027.103	-3.12
1027.213	-5.63
1027.324	8.55
1027.434	3.97
1027.544	11.06
1027.655	5.06
1027.765	-15.14
1027.875	6.04
1027.986	-12.52
1028.096	5.65
1028.206	2.96
1028.317	-10.85
1028.427	0.86
1028.537	-9.06
1028.647	-3.12
1028.758	-8.66
1028.868	-0.73
1028.978	4.66
1029.088	0.47
1029.199	0.27
1029.309	-9
1029.419	7.02
1029.529	10.57
1029.639	8.77
1029.75	0.57
1029.86	9.61
1029.97	-2.52
1030.08	-4.42
1030.19	-7.13
1030.301	1.27
1030.411	-7.2
1030.521	2.37
1030.631	4.66
1030.741	-0.43
1030.851	1.46
1030.961	0.87
1031.072	18.27
1031.182	-2.42
1031.292	-1.82
1031.402	1.56
1031.512	3.46
1031.622	3.66
1031.732	1.27
1031.842	-3.53
1031.952	-6.54
1032.062	0.87
1032.172	-3.42
1032.282	-4.01
1032.393	-0.53
1032.503	-4.02
1032.613	2.85
1032.723	-2.23
1032.833	2.86
1032.943	7.46
1033.053	-8.5
1033.163	-5.14
1033.273	-0.43
1033.383	6.84
1033.493	-2.12
1033.603	-4.73
1033.713	2.16
1033.823	-7.42
1033.932	1.95
1034.042	-2.43
1034.152	0.87
1034.262	-0.43
1034.372	0.87
1034.482	-9.6
1034.592	-7.59
1034.702	12.03
1034.812	-5.11
1034.922	2.67
1035.032	2.87
1035.141	-1.13
1035.251	3.56
1035.361	-11.94
1035.471	-1.33
1035.581	-2.33
1035.691	0.17
1035.801	0.17
1035.91	6.45
1036.02	-0.23
1036.13	-2.02
1036.24	-5.72
1036.35	-6.82
1036.46	-8.5
1036.569	-2.42
1036.679	3.77
1036.789	-12.82
1036.899	-0.03
1037.008	-7.03
1037.118	-1.83
1037.228	-3.42
1037.338	-10.32
1037.447	3.85
1037.557	-10.93
1037.667	-3.64
1037.777	1.56
1037.886	-2.03
1037.996	-15.84
1038.106	9.17
1038.215	-0.23
1038.325	-2.71
1038.435	3.66
1038.544	-0.63
1038.654	3.96
1038.764	-5.62
