Data from 191228_Ar05mT_600W_ALA10_8000ms_Subt2_02-24-56-757.txt Node
Date: Sun Dec 29 02:24:56 KST 2019
User: L102
Spectrometer: HR4D2517
Trigger mode: 4
Integration Time (sec): 8.000000E0
Scans to average: 1
Electric dark correction enabled: true
Nonlinearity correction enabled: true
Boxcar width: 0
XAxis mode: Wavelengths
Number of Pixels in Spectrum: 3648
>>>>>Begin Spectral Data<<<<<
597.141	-8.97
597.272	-8.97
597.404	-8.97
597.536	0.97
597.668	10.33
597.8	0.12
597.932	-4.15
598.064	-6.15
598.196	8.7
598.328	-1.28
598.46	-8.86
598.591	-4.36
598.723	-2.99
598.855	6.12
598.987	3.52
599.119	2.01
599.251	6.32
599.383	1.12
599.514	10.05
599.646	15.01
599.778	11.73
599.91	9.24
600.042	-2.96
600.173	2.61
600.305	12.69
600.437	13.04
600.569	2.3
600.701	15.94
600.832	7.83
600.964	5.81
601.096	24.28
601.228	14.32
601.359	18.82
601.491	6.82
601.623	12.79
601.755	9.98
601.886	15.56
602.018	16.99
602.15	45.47
602.281	43.25
602.413	39.14
602.545	50.81
602.677	50.83
602.808	94.57
602.94	134.52
603.072	141.24
603.203	56.75
603.335	18.48
603.467	15.44
603.598	17.32
603.73	15.13
603.862	30.53
603.993	62.87
604.125	77.47
604.256	50.12
604.388	34.72
604.52	3.02
604.651	5.21
604.783	8.81
604.915	5.4
605.046	14.71
605.178	10.43
605.309	12.9
605.441	20.19
605.572	32.5
605.704	28.82
605.836	16.34
605.967	15.56
606.099	5.62
606.23	-3.97
606.362	0.02
606.493	7
606.625	-3.78
606.756	7.53
606.888	-19.34
607.019	-2.79
607.151	11.34
607.282	4.11
607.414	16.28
607.545	-2.98
607.677	11
607.808	15.97
607.94	2.8
608.071	1.9
608.203	6.53
608.334	-0.48
608.466	8.7
608.597	14.92
608.728	14.79
608.86	6.91
608.991	11.13
609.123	15.12
609.254	4.91
609.386	7.4
609.517	18.32
609.648	40.53
609.78	23.93
609.911	20.35
610.043	14.83
610.174	21.09
610.305	33.39
610.437	27.79
610.568	-3.17
610.699	6.38
610.831	4.53
610.962	6.62
611.093	-0.38
611.225	8.15
611.356	14.53
611.487	0.62
611.619	5.58
611.75	7.41
611.881	1.42
612.013	18.08
612.144	0.02
612.275	3.19
612.406	6.01
612.538	9.85
612.669	16.86
612.8	4.8
612.931	11.23
613.063	1.72
613.194	1.42
613.325	-1.28
613.456	9.81
613.588	3.82
613.719	-4.08
613.85	12.19
613.981	14.2
614.112	33.64
614.244	38.54
614.375	34.9
614.506	33.4
614.637	9.1
614.768	14.54
614.9	8
615.031	8.13
615.162	6.52
615.293	30.69
615.424	27.1
615.555	9.03
615.686	1.61
615.818	12.39
615.949	8.18
616.08	13.65
616.211	11.72
616.342	24.02
616.473	-1.68
616.604	18.46
616.735	27.01
616.866	31.83
616.998	39.73
617.129	34.07
617.26	27.22
617.391	4.8
617.522	7.12
617.653	20.53
617.784	4.12
617.915	-0.88
618.046	-1.58
618.177	0.91
618.308	3.81
618.439	-0.18
618.57	10.15
618.701	10.34
618.832	2.02
618.963	-13.26
619.094	1.11
619.225	-1.08
619.356	1.22
619.487	-0.58
619.618	0.91
619.749	8.91
619.88	6.11
620.011	-2.68
620.142	13.08
620.273	3.81
620.404	9.51
620.535	9.78
620.665	11.5
620.796	28.61
620.927	19.03
621.058	34.77
621.189	30.41
621.32	20.35
621.451	13.33
621.582	10.35
621.713	7.22
621.844	-11.1
621.974	-2.29
622.105	0.51
622.236	1.61
622.367	-1.39
622.498	7.83
622.629	2.31
622.759	-9.37
622.89	0.22
623.021	-2.28
623.152	-2.68
623.283	7.4
623.414	0.52
623.544	2.01
623.675	-10.62
623.806	3.9
623.937	-4.59
624.067	-13.4
624.198	2.51
624.329	3.71
624.46	11.4
624.59	14.2
624.721	14.86
624.852	-0.08
624.983	6.4
625.113	-3.58
625.244	-1.28
625.375	6.92
625.506	8.02
625.636	-3.97
625.767	-3.17
625.898	3.9
626.028	-1.48
626.159	-2.19
626.29	11.05
626.42	9.6
626.551	5.83
626.682	8.11
626.812	-2.37
626.943	5.8
627.074	10.8
627.204	4.92
627.335	3.41
627.466	2.59
627.596	0.72
627.727	-5.89
627.857	-1.08
627.988	-0.08
628.119	12.51
628.249	8.31
628.38	9.75
628.51	1.91
628.641	-3.68
628.772	9.13
628.902	15.45
629.033	11.71
629.163	2.92
629.294	33.03
629.424	38.29
629.555	42.75
629.685	15.12
629.816	5.22
629.946	7.4
630.077	17.34
630.207	7.93
630.338	28.36
630.468	33.64
630.599	37.31
630.729	17.04
630.86	12.23
630.99	10.51
631.121	3.71
631.251	2.41
631.382	-15.12
631.512	3.9
631.643	3.19
631.773	0.92
631.904	-3.78
632.034	1.51
632.164	7.68
632.295	-1.38
632.425	3.92
632.556	-15.06
632.686	-5.95
632.816	1.72
632.947	4.02
633.077	0.61
633.208	2.31
633.338	3.62
633.468	-4.88
633.599	8.26
633.729	-0.08
633.859	-7.3
633.99	6.13
634.12	-1.78
634.25	-3.39
634.381	8.82
634.511	-1.69
634.641	2.41
634.772	-1.48
634.902	0.82
635.032	11.31
635.163	-0.99
635.293	6.9
635.423	3.01
635.553	6.51
635.684	-9.14
635.814	6.48
635.944	12.11
636.074	12.31
636.205	8.41
636.335	19.27
636.465	13.75
636.595	14.42
636.726	14.29
636.856	18.62
636.986	10.12
637.116	11.84
637.246	9.9
637.377	-0.28
637.507	8.41
637.637	7.71
637.767	-3.97
637.897	10.04
638.027	16.51
638.158	21.94
638.288	24.44
638.418	23.74
638.548	5.63
638.678	9
638.808	-2.07
638.938	1.41
639.069	-0.28
639.199	-6.79
639.329	-15.36
639.459	-2.49
639.589	-3.59
639.719	6.61
639.849	-5.78
639.979	3.62
640.109	6.52
640.239	8.74
640.369	6.69
640.5	4.99
640.63	-11.19
640.76	22.22
640.89	15.59
641.02	22.82
641.15	27.1
641.28	51.97
641.41	60.63
641.54	56.69
641.67	29.79
641.8	17.71
641.93	2.21
642.06	-0.78
642.19	-5.87
642.32	-2.18
642.45	10.53
642.58	1.81
642.71	3.21
642.84	-1.49
642.97	6.21
643.1	-0.08
643.229	-3.38
643.359	-1.49
643.489	-0.88
643.619	10.55
643.749	-0.68
643.879	-2.29
644.009	3.11
644.139	11.53
644.269	7.01
644.399	23.69
644.529	8.28
644.658	1.41
644.788	-2.18
644.918	9.51
645.048	1.71
645.178	-5.77
645.308	9.48
645.438	5.21
645.567	11.24
645.697	12.05
645.827	4.61
645.957	4.8
646.087	12.88
646.216	6.8
646.346	21.6
646.476	29.34
646.606	18.45
646.736	5.71
646.865	4.41
646.995	13.3
647.125	6.47
647.255	-1.57
647.384	2.61
647.514	13.83
647.644	13.56
647.774	2.02
647.903	13.88
648.033	-1.38
648.163	11.59
648.293	3.2
648.422	-0.28
648.552	-2.29
648.682	-5.55
648.811	-0.18
648.941	-1.99
649.071	3.81
649.2	1.5
649.33	10.42
649.46	3.02
649.589	-4.08
649.719	13.49
649.849	5.98
649.978	-1.99
650.108	4.02
650.238	0.81
650.367	-3.86
650.497	6.12
650.626	8.62
650.756	6.87
650.886	13.11
651.015	-0.68
651.145	-0.78
651.274	-0.78
651.404	14.46
651.534	14.31
651.663	5.32
651.793	4.89
651.922	6.27
652.052	-6.87
652.181	-0.38
652.311	14.03
652.44	5.62
652.57	6.31
652.699	-2.89
652.829	8.6
652.958	-3.27
653.088	20.47
653.217	7.53
653.347	15.22
653.476	20.11
653.606	6.51
653.735	22.64
653.865	1.21
653.994	-0.48
654.124	8.13
654.253	-2.69
654.383	12.3
654.512	9.29
654.642	9.73
654.771	0.82
654.9	-6.36
655.03	-2.27
655.159	-7.88
655.289	14.2
655.418	8.66
655.547	9.36
655.677	10.58
655.806	9.08
655.936	12.92
656.065	22.54
656.194	8.4
656.324	12.95
656.453	0.12
656.582	3.2
656.712	1.32
656.841	4.52
656.97	12.49
657.1	1.6
657.229	-6.09
657.358	0.72
657.488	7.09
657.617	-3.78
657.746	-5.29
657.876	2.82
658.005	-3.39
658.134	2.41
658.263	-3.88
658.393	5.11
658.522	11.74
658.651	-9.48
658.78	-4.98
658.91	-6.08
659.039	14.51
659.168	16.74
659.297	12.33
659.427	11.13
659.556	17.83
659.685	7.72
659.814	11.83
659.943	8.01
660.073	29.06
660.202	30.1
660.331	33.67
660.46	33.7
660.589	7.9
660.719	-5.95
660.848	1.82
660.977	-0.78
661.106	-6.59
661.235	21.82
661.364	5.51
661.493	0.91
661.623	5.21
661.752	4.59
661.881	-1.48
662.01	0.12
662.139	4.2
662.268	4.91
662.397	-5.09
662.526	7.2
662.655	5.71
662.784	6.27
662.913	-2.68
663.043	3.81
663.172	6.76
663.301	4.78
663.43	-0.18
663.559	4.72
663.688	3.1
663.817	2.01
663.946	11.22
664.075	-10.42
664.204	8.96
664.333	4.02
664.462	7.09
664.591	7.82
664.72	-5.45
664.849	1.31
664.978	8.4
665.107	11.6
665.236	6.39
665.365	4
665.494	12.11
665.623	27.48
665.751	8.07
665.88	25.99
666.009	7.72
666.138	18.31
666.267	21.86
666.396	20.2
666.525	11.71
666.654	1.12
666.783	-1.58
666.912	8.68
667.041	9.1
667.169	15.09
667.298	17.14
667.427	27.55
667.556	17.85
667.685	8.52
667.814	3.91
667.943	5.4
668.071	8.81
668.2	17.95
668.329	4.1
668.458	1.41
668.587	8.22
668.716	-0.79
668.844	-0.48
668.973	6.77
669.102	12.91
669.231	12.39
669.359	10.39
669.488	16.28
669.617	19.09
669.746	23.05
669.875	16.17
670.003	12.33
670.132	3.61
670.261	-2.09
670.389	0.02
670.518	-4.16
670.647	3.22
670.776	2.61
670.904	5.01
671.033	7.88
671.162	14.42
671.29	-5.18
671.419	26.09
671.548	12.23
671.676	10.12
671.805	26
671.934	5.48
672.062	17.74
672.191	-3.58
672.32	6.01
672.448	3.1
672.577	11.65
672.706	2.62
672.834	3.31
672.963	8.12
673.092	7.38
673.22	15.73
673.349	8.92
673.477	15.96
673.606	20.17
673.735	28.12
673.863	18.98
673.992	18.67
674.12	40.83
674.249	31.46
674.377	52.96
674.506	80.81
674.634	108.39
674.763	133.72
674.892	157.64
675.02	212.52
675.149	255.15
675.277	170.41
675.406	74.85
675.534	46.33
675.663	19.29
675.791	12.19
675.92	13.92
676.048	16.67
676.176	28.84
676.305	30.95
676.433	40.4
676.562	34.89
676.69	21.63
676.819	5.41
676.947	4.32
677.076	-13.32
677.204	-1.48
677.332	15.48
677.461	0.02
677.589	1.61
677.718	9.99
677.846	18.55
677.975	9.28
678.103	-9.47
678.231	1.41
678.36	-0.98
678.488	-1.38
678.616	4.8
678.745	-11.66
678.873	2.51
679.001	0.02
679.13	4.32
679.258	3.7
679.386	10.48
679.515	-0.28
679.643	-0.48
679.771	0.11
679.9	-0.69
680.028	12.33
680.156	4.61
680.285	6.09
680.413	-0.89
680.541	-1.58
680.669	-0.78
680.798	6.5
680.926	13.72
681.054	13.61
681.182	0.81
681.311	5.29
681.439	16.27
681.567	-0.28
681.695	13.81
681.824	4.82
681.952	-2.79
682.08	5.53
682.208	-3.39
682.336	0.42
682.465	5.21
682.593	11.19
682.721	23.41
682.849	14.73
682.977	8.31
683.105	3.41
683.234	-1.98
683.362	1.11
683.49	-1.88
683.618	-0.58
683.746	-2.17
683.874	-8.88
684.002	3.51
684.131	6.02
684.259	-0.28
684.387	0.22
684.515	-0.59
684.643	0.81
684.771	8.69
684.899	-3.28
685.027	19.67
685.155	19.78
685.283	7.86
685.411	16.38
685.539	11.49
685.667	20.79
685.796	18.17
685.924	48.66
686.052	34.17
686.18	48.32
686.308	57.09
686.436	92.15
686.564	98.72
686.692	137.36
686.82	160.69
686.948	212.37
687.076	191.32
687.204	87.74
687.332	38.26
687.459	16.7
687.587	27.54
687.715	33.68
687.843	34.43
687.971	36.41
688.099	15
688.227	34.63
688.355	43.21
688.483	47.67
688.611	42.21
688.739	46.93
688.867	15.08
688.995	3.39
689.122	-3.49
689.25	-6.09
689.378	-1.97
689.506	0.41
689.634	-8.88
689.762	-2.18
689.89	1.21
690.018	15.85
690.145	-1.68
690.273	11.09
690.401	12.86
690.529	4.41
690.657	9.3
690.784	-0.58
690.912	6.19
691.04	1.7
691.168	9.31
691.296	1.61
691.423	17.82
691.551	13.08
691.679	3.81
691.807	14.49
691.935	2.81
692.062	11.36
692.19	22.6
692.318	14.3
692.446	21.94
692.573	23.61
692.701	33.18
692.829	35.34
692.956	44.24
693.084	37.78
693.212	53.8
693.34	55.68
693.467	80.67
693.595	99.21
693.723	87.12
693.85	45.23
693.978	34.07
694.106	21.26
694.233	24.96
694.361	23.43
694.489	25.6
694.616	36.32
694.744	52.72
694.871	61.42
694.999	82.55
695.127	75.98
695.254	95.44
695.382	102.52
695.509	136.55
695.637	161.85
695.765	220.04
695.892	259.33
696.02	299.93
696.147	355.32
696.275	429.49
696.403	532.44
696.53	382.85
696.658	152.39
696.785	37.69
696.913	17.99
697.04	17.06
697.168	14.46
697.295	6.9
697.423	12.79
697.55	21.59
697.678	-1.48
697.805	10.09
697.933	4.91
698.06	2.2
698.188	4.61
698.315	3.62
698.443	8.72
698.57	11.2
698.698	13.93
698.825	10.6
698.952	17.42
699.08	7.84
699.207	20.15
699.335	-2.09
699.462	3.92
699.59	7.43
699.717	0.02
699.844	21
699.972	4.11
700.099	0.81
700.227	4.28
700.354	-2.68
700.481	5.1
700.609	6.67
700.736	5.21
700.863	10.7
700.991	17.39
701.118	9.47
701.245	11.05
701.373	13.06
701.5	18.54
701.627	16.27
701.755	24.43
701.882	31.27
702.009	37.42
702.137	40.34
702.264	71.53
702.391	80.27
702.518	81.19
702.646	101.17
702.773	122.74
702.9	138.89
703.027	110.22
703.155	22.41
703.282	14.38
703.409	19.89
703.536	9.61
703.664	7
703.791	5.51
703.918	1.51
704.045	26.36
704.172	21.12
704.3	27.71
704.427	13.31
704.554	26.98
704.681	19.11
704.808	20.95
704.936	31.3
705.063	45.24
705.19	54.93
705.317	53.88
705.444	73.17
705.571	94.19
705.698	127.89
705.826	147.86
705.953	195.86
706.08	245.51
706.207	288.14
706.334	366.26
706.461	434.37
706.588	550.53
706.715	449.56
706.842	223.48
706.969	66.68
707.096	30.14
707.224	11.08
707.351	19.74
707.478	6.58
707.605	6.89
707.732	13.89
707.859	11.59
707.986	3.32
708.113	6.12
708.24	-1.08
708.367	1.41
708.494	14.77
708.621	9.91
708.748	2.01
708.875	1.4
709.002	0.41
709.129	11
709.256	4.6
709.383	8.18
709.51	-1.28
709.637	7.14
709.764	10.28
709.89	18.94
710.017	22.4
710.144	25.95
710.271	14.84
710.398	15.41
710.525	23.02
710.652	24.56
710.779	10.04
710.906	17.53
711.033	6.61
711.16	-2.58
711.286	8.68
711.413	12.04
711.54	7.78
711.667	14.32
711.794	13.71
711.921	12.25
712.048	15.62
712.174	17.32
712.301	29.23
712.428	42.64
712.555	27.46
712.682	16.02
712.808	9.01
712.935	11.09
713.062	14.22
713.189	5.81
713.316	5.3
713.442	14.08
713.569	10.61
713.696	19.42
713.823	-55.48
713.949	31.91
714.076	43.5
714.203	52.68
714.33	54.93
714.456	60.48
714.583	63.52
714.71	54.61
714.837	35.82
714.963	19.06
715.09	23.67
715.217	23.7
715.343	21.93
715.47	25.2
715.597	18.01
715.723	16.45
715.85	15.06
715.977	14.58
716.103	17.36
716.23	9.6
716.357	12.28
716.483	2.31
716.61	1.62
716.736	3.81
716.863	0.81
716.99	-8.62
717.116	11.31
717.243	-2.48
717.369	3.41
717.496	12.97
717.623	11.32
717.749	5.4
717.876	-6.77
718.002	6.79
718.129	8.82
718.255	10.8
718.382	3.4
718.509	1.71
718.635	10.28
718.762	6.4
718.888	9.54
719.015	8.69
719.141	4.4
719.268	4.41
719.394	15.19
719.521	31.89
719.647	28.16
719.774	34.28
719.9	49.04
720.027	55.34
720.153	63.18
720.279	61.92
720.406	91.88
720.532	108.08
720.659	89.97
720.785	44.55
720.912	6.39
721.038	13.89
721.165	7.42
721.291	-2.58
721.417	10.78
721.544	1.11
721.67	-6.38
721.797	0.72
721.923	6.69
722.049	11.14
722.176	0.91
722.302	15.99
722.428	4
722.555	8.3
722.681	11.69
722.807	15.2
722.934	6.82
723.06	18.39
723.186	5
723.313	9.42
723.439	-2.89
723.565	0.92
723.692	16.12
723.818	1.62
723.944	7.51
724.07	9.84
724.197	-5.59
724.323	9.4
724.449	17.34
724.576	3.91
724.702	14.45
724.828	4.3
724.954	6.62
725.081	12.24
725.207	7.01
725.333	11.21
725.459	26.87
725.585	36.36
725.712	29.21
725.838	32.19
725.964	53.56
726.09	64.77
726.216	79.89
726.343	101.47
726.469	105.44
726.595	94.29
726.721	95.54
726.847	127.35
726.973	139.54
727.099	167.45
727.226	160.57
727.352	77.01
727.478	18.96
727.604	14.96
727.73	19.34
727.856	9.31
727.982	8.28
728.108	15.87
728.234	15.34
728.361	29.57
728.487	17.39
728.613	15.39
728.739	10.21
728.865	11.49
728.991	1.71
729.117	14.81
729.243	7.81
729.369	7.99
729.495	8.77
729.621	19.34
729.747	20.02
729.873	10.52
729.999	34.68
730.125	20.15
730.251	29.99
730.377	40.57
730.503	38.37
730.629	43.49
730.755	66.37
730.881	60.86
731.007	93.4
731.133	87.79
731.259	50.71
731.385	48.72
731.511	50.38
731.637	16.29
731.763	14.67
731.888	-1.28
732.014	7.88
732.14	18.11
732.266	10.24
732.392	1.31
732.518	6.49
732.644	3.92
732.77	13.99
732.896	18.68
733.021	21.06
733.147	13.28
733.273	18.08
733.399	21.19
733.525	31.6
733.651	14.69
733.777	28.55
733.902	37.21
734.028	42.01
734.154	54.3
734.28	65.92
734.406	77.75
734.531	72.25
734.657	98.71
734.783	112.07
734.909	142.25
735.034	158.04
735.16	189.62
735.286	153.96
735.412	84.77
735.537	57.57
735.663	55.08
735.789	59.53
735.915	93.13
736.04	135.09
736.166	147.14
736.292	200.06
736.418	219.4
736.543	263.3
736.669	305.39
736.795	338.64
736.92	418.24
737.046	565.91
737.172	518.48
737.297	379.65
737.423	375.81
737.549	404.93
737.674	482.39
737.8	537.94
737.926	641.66
738.051	725.99
738.177	963.83
738.302	1019.35
738.428	512.94
738.554	164.05
738.679	70.05
738.805	55.48
738.93	47.12
739.056	59.42
739.182	55.11
739.307	19.89
739.433	36.12
739.558	6.69
739.684	18.89
739.809	15.9
739.935	12.81
740.06	20.32
740.186	27.07
740.311	21.77
740.437	22.48
740.562	22.77
740.688	25.35
740.813	46.39
740.939	44.97
741.064	43.54
741.19	44.16
741.315	36.73
741.441	35
741.566	31.69
741.692	32.14
741.817	41.1
741.943	40.05
742.068	47.31
742.194	50.69
742.319	61.55
742.444	66.75
742.57	56.68
742.695	41.55
742.821	37.63
742.946	44.76
743.071	53.18
743.197	60.8
743.322	62.26
743.448	74.28
743.573	53.32
743.698	30.42
743.824	8.89
743.949	13
744.074	10.29
744.2	9.08
744.325	17.03
744.45	21.68
744.576	0.12
744.701	17.6
744.826	7.68
744.952	14.13
745.077	16.88
745.202	25.53
745.327	14.69
745.453	14.64
745.578	28.37
745.703	26.13
745.828	17.76
745.954	24.47
746.079	26.8
746.204	21.92
746.329	34.49
746.455	42.74
746.58	34.19
746.705	40.35
746.83	31.9
746.956	43.92
747.081	50.37
747.206	55.66
747.331	62.99
747.456	63.7
747.582	67.74
747.707	75.02
747.832	96.93
747.957	108.64
748.082	120.96
748.207	157.03
748.332	188.34
748.458	185.12
748.583	220.89
748.708	292.52
748.833	343.4
748.958	467.52
749.083	625.98
749.208	852.52
749.333	1113.44
749.458	1425.36
749.584	1606.08
749.709	1950.17
749.834	2249.41
749.959	2567.53
750.084	3135.82
750.209	4310.94
750.334	3602.47
750.459	1757.38
750.584	1080.67
750.709	1032.44
750.834	1079.49
750.959	1216.37
751.084	1346.57
751.209	1641.79
751.334	2110.43
751.459	1229.85
751.584	372.52
751.709	127.27
751.834	58.36
751.959	47.39
752.084	28.46
752.209	29.97
752.334	16.58
752.459	22.43
752.584	25.9
752.709	11.81
752.834	18.07
752.959	10.77
753.083	11.76
753.208	16.86
753.333	11.71
753.458	7.91
753.583	14.47
753.708	22.17
753.833	24.04
753.958	6.42
754.083	21.36
754.207	16.76
754.332	22.37
754.457	22.2
754.582	18.38
754.707	13.48
754.832	13.3
754.956	16.18
755.081	7.48
755.206	12.19
755.331	8.87
755.456	18.9
755.581	11.29
755.705	15.85
755.83	14.71
755.955	1.51
756.08	14.66
756.204	3.61
756.329	4.82
756.454	17.38
756.579	6.8
756.703	-5.08
756.828	13.68
756.953	8.5
757.078	-4.38
757.202	19.58
757.327	8.4
757.452	0.81
757.576	9.58
757.701	9.29
757.826	13.01
757.951	22.5
758.075	21.44
758.2	17.07
758.325	-4.38
758.449	16.17
758.574	24.9
758.699	2.11
758.823	14.55
758.948	16.35
759.072	8.37
759.197	13.39
759.322	8.81
759.446	6.39
759.571	29
759.695	26.72
759.82	23.4
759.945	25.84
760.069	22.22
760.194	18.64
760.318	22.96
760.443	28.61
760.568	36.47
760.692	43.05
760.817	36.95
760.941	48.76
761.066	51.87
761.19	59.65
761.315	70.02
761.439	96.24
761.564	111.84
761.688	138.48
761.813	171.44
761.937	243.29
762.062	347.65
762.186	471.86
762.311	643.41
762.435	893.62
762.56	1084.62
762.684	1317.67
762.809	1556.79
762.933	1730.06
763.057	1864.9
763.182	2263.08
763.306	3129.71
763.431	3194.17
763.555	1276.05
763.68	365.69
763.804	135.16
763.928	74.6
764.053	46.03
764.177	40.61
764.302	33.41
764.426	26.5
764.55	22.02
764.675	16.67
764.799	22.31
764.923	14.53
765.048	11.13
765.172	8.92
765.296	21.72
765.421	9.32
765.545	27.62
765.669	18.78
765.794	13.06
765.918	20.35
766.042	13.86
766.167	30.75
766.291	14.97
766.415	24.03
766.539	36.92
766.664	35.86
766.788	16.59
766.912	28.11
767.036	14.18
767.161	14.85
767.285	8.87
767.409	5.02
767.533	6.82
767.658	1.71
767.782	9.16
767.906	9.32
768.03	19.85
768.154	6.2
768.279	21.46
768.403	5.09
768.527	20.15
768.651	2.31
768.775	12.02
768.899	0.61
769.024	18.52
769.148	8.97
769.272	9.99
769.396	16.82
769.52	14.22
769.644	11
769.768	20.42
769.892	15.75
770.017	29.81
770.141	20.65
770.265	41.37
770.389	41.5
770.513	47.2
770.637	48.27
770.761	54.05
770.885	89.13
771.009	135.07
771.133	184.87
771.257	268.55
771.381	365.55
771.505	445.49
771.629	510.02
771.753	600.42
771.877	653.55
772.001	744.63
772.125	944.08
772.249	1325.22
772.373	922.08
772.497	306.35
772.621	93.68
772.745	37.88
772.869	39.96
772.993	12.53
773.117	21.63
773.241	10.4
773.365	11.96
773.489	18.03
773.613	11.66
773.737	3.22
773.861	13.73
773.985	2.9
774.109	7.11
774.233	-13.67
774.357	4.5
774.48	7.19
774.604	-2.18
774.728	6.9
774.852	4.33
774.976	4.2
775.1	0.82
775.224	0.91
775.347	16.99
775.471	-3.77
775.595	8.37
775.719	2.22
775.843	-1.38
775.967	-3.09
776.09	8.18
776.214	4
776.338	2.11
776.462	0.61
776.586	18.21
776.709	10.38
776.833	12.4
776.957	2.6
777.081	-2.48
777.204	5.51
777.328	2.2
777.452	-0.08
777.576	-6.44
777.699	3.31
777.823	-6.76
777.947	13.96
778.071	0.22
778.194	0.61
778.318	-4.07
778.442	10.87
778.565	12.01
778.689	5.29
778.813	-2.58
778.936	3.92
779.06	8.52
779.184	8.18
779.307	2.51
779.431	-3.98
779.555	9.84
779.678	11.95
779.802	0.02
779.926	0.51
780.049	3.93
780.173	1.9
780.296	0.71
780.42	-1.58
780.544	7.58
780.667	-6.99
780.791	4.62
780.914	1.01
781.038	13.5
781.162	11.11
781.285	1.42
781.409	5.9
781.532	-6.06
781.656	8.2
781.779	2.31
781.903	4.5
782.026	1.11
782.15	-1.28
782.273	0.81
782.397	-11.99
782.52	-2.69
782.644	-1.79
782.767	8.58
782.891	4.22
783.014	4.99
783.138	1.42
783.261	17.69
783.385	3.49
783.508	10.36
783.632	-5.67
783.755	4.69
783.879	5.4
784.002	-5.89
784.125	6.7
784.249	13.65
784.372	1.61
784.496	52.78
784.619	0.72
784.742	0.22
784.866	4.51
784.989	13.22
785.113	15.28
785.236	11.5
785.359	21.04
785.483	22.16
785.606	18.83
785.729	10.8
785.853	16.62
785.976	20.93
786.099	18.22
786.223	17.62
786.346	10.57
786.469	7.93
786.593	15.53
786.716	24.93
786.839	10.49
786.962	0.61
787.086	-1.78
787.209	5.5
787.332	32.16
787.455	-2.47
787.579	7.18
787.702	6.11
787.825	16.72
787.948	20.1
788.072	22.47
788.195	23.51
788.318	36.55
788.441	37.39
788.565	46.85
788.688	43.12
788.811	53.26
788.934	74.26
789.057	64.45
789.181	22.51
789.304	16.1
789.427	8.7
789.55	12.97
789.673	11.86
789.796	-2.18
789.919	0.81
790.043	11.39
790.166	6.68
790.289	7.3
790.412	12.21
790.535	11.18
790.658	7.53
790.781	21.43
790.904	18.48
791.027	16.68
791.15	1.22
791.274	15.47
791.397	15.2
791.52	12.77
791.643	1.11
791.766	16.76
791.889	3.1
792.012	11.21
792.135	13.19
792.258	15.04
792.381	5.7
792.504	8.52
792.627	20.85
792.75	25.14
792.873	18.8
792.996	20.25
793.119	24.23
793.242	44.02
793.365	54.45
793.488	76.35
793.611	115.86
793.734	197.4
793.857	333.82
793.98	493.29
794.103	582.77
794.226	599.42
794.348	651.72
794.471	788.14
794.594	1104.96
794.717	1212.74
794.84	517.18
794.963	142.61
795.086	51.06
795.209	26.55
795.332	19.71
795.454	18.38
795.577	18.69
795.7	3.11
795.823	11.67
795.946	15.23
796.069	10.51
796.192	11.51
796.314	11.52
796.437	7.3
796.56	3.71
796.683	13.94
796.806	7.67
796.928	14.53
797.051	13.17
797.174	17.94
797.297	8.5
797.42	10.61
797.542	13.26
797.665	9.68
797.788	9.08
797.911	12.25
798.033	13.59
798.156	15.04
798.279	16.49
798.402	19.53
798.524	-7.7
798.647	3.21
798.77	21.9
798.892	23.22
799.015	37.31
799.138	29.13
799.26	47.2
799.383	67.44
799.506	123.97
799.628	205.95
799.751	345.14
799.874	471.39
799.996	482.74
800.119	531.99
800.242	645.41
800.364	867.47
800.487	1197.52
800.609	914.34
800.732	728.03
800.855	679.91
800.977	669.9
801.1	780.89
801.222	991.26
801.345	1304.73
801.468	704.68
801.59	195.99
801.713	74
801.835	30.84
801.958	-1.19
802.08	25.69
802.203	11.56
802.325	6.89
802.448	16.49
802.571	12.36
802.693	14.51
802.816	8.96
802.938	21.73
803.061	10.53
803.183	23.27
803.305	8.76
803.428	11.81
803.55	15.42
803.673	23.95
803.795	16.94
803.918	24.59
804.04	19.17
804.163	13.44
804.285	27.3
804.408	34.03
804.53	30.02
804.652	26.97
804.775	30.46
804.897	81.38
805.02	27.99
805.142	61.13
805.264	36.64
805.387	32.79
805.509	12.26
805.631	16.66
805.754	14.9
805.876	5.71
805.999	14.59
806.121	13.25
806.243	13.83
806.366	17.57
806.488	11.42
806.61	10.46
806.733	10.42
806.855	9.09
806.977	6.29
807.099	13.73
807.222	24.73
807.344	21.36
807.466	26.44
807.589	28.36
807.711	28.32
807.833	51.65
807.955	26
808.078	31.02
808.2	35.92
808.322	36.82
808.444	47.16
808.566	47.05
808.689	52.18
808.811	43.22
808.933	81.63
809.055	98.35
809.177	155.46
809.3	232.51
809.422	416.43
809.544	847.47
809.666	1310.38
809.788	1379.38
809.911	1444.07
810.033	1765.67
810.155	2498.38
810.277	2489.61
810.399	1295.45
810.521	1167.82
810.643	2292.08
810.765	4524.51
810.888	5637.39
811.01	5511.44
811.132	6311.31
811.254	7950.19
811.376	11075.09
811.498	6046.04
811.62	1613.64
811.742	525.13
811.864	262.52
811.986	159.12
812.108	116.84
812.23	74.79
812.352	73.76
812.474	55.04
812.596	40.69
812.718	29
812.84	18.85
812.962	16.51
813.084	21.35
813.206	26.3
813.328	18.5
813.45	23.95
813.572	20.26
813.694	17.72
813.816	14.67
813.938	7.61
814.06	12.78
814.182	13.53
814.304	24.2
814.426	2.7
814.548	10.87
814.67	13.95
814.792	17.6
814.914	14.96
815.036	13.01
815.157	7.7
815.279	11.02
815.401	8.69
815.523	3.22
815.645	8.48
815.767	0.21
815.889	8.6
816.01	9.97
816.132	6.38
816.254	19.03
816.376	19.98
816.498	13.3
816.62	1.81
816.741	11.66
816.863	16.73
816.985	19
817.107	27.03
817.229	18.93
817.35	28.43
817.472	40.98
817.594	18.11
817.716	32.06
817.838	23.42
817.959	-3.79
818.081	9.86
818.203	0.52
818.325	-6.85
818.446	2.02
818.568	3.31
818.69	7.59
818.811	4.6
818.933	8.2
819.055	4.6
819.176	8.49
819.298	2.9
819.42	-2.68
819.542	-7.65
819.663	0.71
819.785	14.48
819.907	-1.08
820.028	6.99
820.15	1.01
820.271	11.04
820.393	6.31
820.515	2.22
820.636	7.57
820.758	7.76
820.88	-5.25
821.001	-5.77
821.123	8.81
821.244	4.4
821.366	8.96
821.487	3.02
821.609	-6.38
821.731	9.09
821.852	3.11
821.974	2.71
822.095	9.05
822.217	-5.46
822.338	2.71
822.46	3.4
822.581	2.8
822.703	8.97
822.824	-3.09
822.946	6.22
823.067	-0.68
823.189	9.67
823.31	-0.88
823.432	9.27
823.553	3.41
823.675	3
823.796	5.89
823.918	13.54
824.039	8.23
824.161	-6.04
824.282	9.6
824.404	11.78
824.525	4.71
824.646	9.05
824.768	14.27
824.889	19.4
825.011	24.01
825.132	22.3
825.253	37.08
825.375	32.25
825.496	50.29
825.617	98.25
825.739	339.21
825.86	654.33
825.982	679.55
826.103	731
826.224	1017.03
826.346	861.26
826.467	252.51
826.588	74.57
826.71	33.89
826.831	22.17
826.952	12.32
827.073	13.41
827.195	10.61
827.316	9.78
827.437	7.08
827.559	3.6
827.68	7.41
827.801	12.59
827.922	14.77
828.044	3
828.165	0.81
828.286	5.68
828.407	1.4
828.529	2.3
828.65	12.63
828.771	0.61
828.892	3.21
829.013	17.73
829.135	-5.59
829.256	-3.07
829.377	-3.86
829.498	2.01
829.619	-7.29
829.74	12.25
829.862	-1.28
829.983	-5.35
830.104	8.98
830.225	6.01
830.346	5.79
830.467	8.68
830.588	-7.78
830.709	4.03
830.831	3.01
830.952	10.12
831.073	12.13
831.194	5.72
831.315	-0.88
831.436	-1.98
831.557	2.62
831.678	9.27
831.799	12.48
831.92	1.31
832.041	-0.28
832.162	0.21
832.283	-6.26
832.404	4.29
832.525	0.42
832.646	0.02
832.767	18.23
832.888	14.99
833.009	17.97
833.13	5.1
833.251	0.71
833.372	4.62
833.493	5.99
833.614	-1.98
833.735	-5.65
833.856	7.74
833.977	4.9
834.098	6.09
834.219	2.51
834.34	2.01
834.461	1.11
834.582	-0.88
834.703	4.19
834.824	12.31
834.945	5.71
835.066	15.47
835.186	14.14
835.307	-0.88
835.428	-4.67
835.549	-8.29
835.67	0.11
835.791	1.91
835.912	8.3
836.032	-2.89
836.153	2.5
836.274	1.12
836.395	-3.59
836.516	6.82
836.637	0.51
836.757	2.39
836.878	-1.28
836.999	-2.38
837.12	-0.48
837.241	0.51
837.361	0.91
837.482	6.11
837.603	9.06
837.724	18.7
837.844	11.41
837.965	24.78
838.086	25.57
838.207	31.48
838.327	25.68
838.448	10.07
838.569	11.29
838.689	17.56
838.81	23.01
838.931	30.74
839.052	33.66
839.172	25.31
839.293	10.53
839.414	10.13
839.534	22.73
839.655	12.59
839.776	27.34
839.896	24.83
840.017	61.32
840.137	185
840.258	843.86
840.379	1757.02
840.499	1760.42
840.62	2259.63
840.741	1207.1
840.861	275.13
840.982	106.17
841.102	68.93
841.223	31.63
841.344	36.94
841.464	50.24
841.585	72.86
841.705	126.38
841.826	491.43
841.946	2047.79
842.067	3322.51
842.187	3652.8
842.308	3670.56
842.428	1254.12
842.549	308.94
842.669	123.46
842.79	80.02
842.91	48.68
843.031	37.26
843.151	22.69
843.272	31.65
843.392	29.89
843.513	14.83
843.633	5.4
843.754	18.35
843.874	30.22
843.995	4.41
844.115	32
844.235	30.15
844.356	26
844.476	13.09
844.597	13.4
844.717	-0.98
844.837	1.5
844.958	2.11
845.078	3.2
845.199	-14.24
845.319	4
845.439	3.29
845.56	1.82
845.68	0.22
845.8	-3.58
845.921	14.06
846.041	4.82
846.161	-3.29
846.282	6.96
846.402	-5.54
846.522	-3.58
846.643	2.01
846.763	1.11
846.883	-4.17
847.004	-7.8
847.124	-9.07
847.244	-12.09
847.364	1.51
847.485	0.51
847.605	10.01
847.725	-1.67
847.845	11.51
847.966	5.92
848.086	8.8
848.206	6.87
848.326	-7.07
848.447	13.49
848.567	0.02
848.687	17.09
848.807	18.06
848.927	4.32
849.047	16.08
849.168	0.41
849.288	3.28
849.408	-6.89
849.528	5.21
849.648	6.29
849.768	-2.77
849.889	8.71
850.009	1.11
850.129	-5.26
850.249	-4.27
850.369	4.8
850.489	9.85
850.609	-2.08
850.729	6.68
850.849	6.7
850.97	15.59
851.09	5.77
851.21	11.26
851.33	15.49
851.45	29.75
851.57	128.77
851.69	616.33
851.81	1232.58
851.93	1414.54
852.05	701.11
852.17	173.23
852.29	51.92
852.41	19.85
852.53	20.42
852.65	19.05
852.77	10.29
852.89	1.71
853.01	13.9
853.13	4.39
853.25	8.31
853.37	-4.49
853.49	6.28
853.61	1.71
853.73	-1.88
853.85	5.3
853.97	-4.66
854.09	5.29
854.209	-8.36
854.329	3.81
854.449	8.45
854.569	2.41
854.689	7.49
854.809	5.2
854.929	6.29
855.049	4.77
855.169	-4.59
855.288	-33.65
855.408	3.4
855.528	-7.4
855.648	5.9
855.768	10.82
855.888	-1.98
856.007	0.12
856.127	9.84
856.247	-2.88
856.367	8.89
856.487	2.9
856.606	1.81
856.726	-1.28
856.846	-5.14
856.966	1.61
857.086	-3.57
857.205	-2.68
857.325	-3.38
857.445	2.61
857.565	3.12
857.684	-0.78
857.804	7.77
857.924	5.17
858.044	14.23
858.163	-1.48
858.283	-5.85
858.403	4.91
858.522	-5.27
858.642	-1.58
858.762	7.9
858.881	12.64
859.001	10.7
859.121	12.09
859.24	-10.43
859.36	-1.48
859.48	0.61
859.599	-2.07
859.719	5.91
859.839	11.25
859.958	-3.98
860.078	22.13
860.197	36.35
860.317	102.86
860.437	69.59
860.556	25.81
860.676	16.28
860.795	7.27
860.915	1.02
861.034	-0.59
861.154	-8.34
861.274	12.18
861.393	9.3
861.513	0.62
861.632	15.59
861.752	53.2
861.871	52.58
861.991	13.88
862.11	7.04
862.23	6.28
862.349	-2.38
862.469	6.42
862.588	-4.47
862.708	-0.78
862.827	1.81
862.947	-5.28
863.066	-0.88
863.186	-5.36
863.305	3.33
863.424	2.41
863.544	2.31
863.663	4.57
863.783	2.91
863.902	1.32
864.022	-5.96
864.141	-2.08
864.26	-1.58
864.38	2.71
864.499	-0.18
864.619	-0.28
864.738	1.31
864.857	7.11
864.977	2.69
865.096	9.05
865.215	-3.68
865.335	-2.58
865.454	3.32
865.573	4.31
865.693	-4.17
865.812	-0.49
865.931	-7.61
866.051	3.08
866.17	3.72
866.289	17.78
866.408	82.7
866.528	321.97
866.647	230.81
866.766	58.15
866.886	26.04
867.005	-0.58
867.124	9.22
867.243	4.11
867.363	2.8
867.482	16.01
867.601	30.59
867.72	17.22
867.839	11.51
867.959	-4.26
868.078	4.71
868.197	0.12
868.316	5.59
868.435	3.59
868.555	7.71
868.674	11.1
868.793	11.71
868.912	6.68
869.031	-4.29
869.15	-5.37
869.27	3.59
869.389	6.17
869.508	-1.88
869.627	6.9
869.746	10.24
869.865	13.03
869.984	5.41
870.103	8.61
870.222	-10.84
870.341	11.32
870.461	4.21
870.58	9.71
870.699	9.62
870.818	-4.95
870.937	9.79
871.056	3.71
871.175	9.55
871.294	21.51
871.413	6.6
871.532	-2.58
871.651	12.9
871.77	3.97
871.889	1.71
872.008	0.72
872.127	3.39
872.246	-0.58
872.365	1.41
872.484	14.09
872.603	5.29
872.722	-0.88
872.841	1.41
872.96	-7.39
873.079	-4.29
873.198	-1.88
873.316	0.42
873.435	15.47
873.554	7.48
873.673	0.81
873.792	10.12
873.911	-4.77
874.03	4.92
874.149	2.11
874.268	-1.79
874.387	1.52
874.505	-4.57
874.624	-3.07
874.743	-3.88
874.862	4.52
874.981	10.19
875.1	-1.18
875.218	-1.88
875.337	-4.49
875.456	2.9
875.575	-2.18
875.694	0.32
875.813	21.88
875.931	99.31
876.05	47.54
876.169	13.96
876.288	19.88
876.406	1.71
876.525	-5.69
876.644	1.01
876.763	5.2
876.881	26.92
877	8.51
877.119	-1.69
877.238	-2.57
877.356	-2.18
877.475	8.15
877.594	-1.68
877.712	12.47
877.831	6.07
877.95	4.49
878.068	-1.48
878.187	6.11
878.306	-1.08
878.424	1.8
878.543	1.31
878.662	5.3
878.78	3.59
878.899	-3.47
879.018	7.41
879.136	4.91
879.255	4.87
879.374	8.07
879.492	-2.18
879.611	16.31
879.729	31.03
879.848	12.33
879.966	6.31
880.085	-0.48
880.204	4.69
880.322	-0.69
880.441	2.93
880.559	7.88
880.678	-4.86
880.796	14.13
880.915	-3.49
881.033	2.11
881.152	-6.56
881.27	-3.56
881.389	4.22
881.507	-4.98
881.626	8.25
881.744	8.17
881.863	9.31
881.981	3.31
882.1	-7.22
882.218	-7.73
882.337	-3.87
882.455	1.11
882.574	-6.27
882.692	-7.44
882.81	-2.99
882.929	5.11
883.047	-7.87
883.166	-1.38
883.284	-1.78
883.403	4.51
883.521	10.04
883.639	-4.38
883.758	10.91
883.876	-3.58
883.994	14.62
884.113	3.78
884.231	13.33
884.349	4.82
884.468	2.1
884.586	-1.87
884.705	25.62
884.823	38.29
884.941	11.87
885.059	13.86
885.178	5.83
885.296	5.69
885.414	3.09
885.533	5.11
885.651	2.11
885.769	5.61
885.887	-2.17
886.006	6.39
886.124	1.71
886.242	-0.68
886.36	12.1
886.479	8.17
886.597	6.61
886.715	-1.39
886.833	5.28
886.952	-1.58
887.07	4.91
887.188	12.61
887.306	-1.77
887.424	-11.41
887.543	2.91
887.661	-5.87
887.779	5.08
887.897	3.98
888.015	1.61
888.133	1.11
888.251	7.87
888.37	-3.38
888.488	-13.1
888.606	-7
888.724	0.81
888.842	3.49
888.96	11.88
889.078	3.11
889.196	0.71
889.314	3.09
889.433	8.51
889.551	-4.98
889.669	-4.26
889.787	17.68
889.905	0.41
890.023	-3.78
890.141	-2.77
890.259	5.31
890.377	0.81
890.495	2.7
890.613	1.7
890.731	10.34
890.849	0.91
890.967	6.71
891.085	19.83
891.203	1.5
891.321	2.21
891.439	9.71
891.557	-0.08
891.675	-0.18
891.793	-0.98
891.911	8.59
892.029	7.68
892.147	4.8
892.265	-7.78
892.383	2.72
892.5	-4.64
892.618	0.21
892.736	-7.38
892.854	-2.08
892.972	5.06
893.09	13.08
893.208	-3.08
893.326	-11.81
893.444	8.17
893.561	-2.19
893.679	-1.98
893.797	11.21
893.915	1.41
894.033	-4.78
894.151	3.02
894.268	-2.08
894.386	-7.21
894.504	-14.02
894.622	-4.08
894.74	2.21
894.857	0.61
894.975	7.18
895.093	-3.48
895.211	0.92
895.329	0.11
895.446	-4.36
895.564	4.81
895.682	1.31
895.8	-1.78
895.917	11.53
896.035	0.32
896.153	16.56
896.271	3.89
896.388	5.49
896.506	14.42
896.624	3.72
896.741	8.79
896.859	10.6
896.977	2.92
897.094	-6.87
897.212	-3.76
897.33	-5.86
897.447	4.41
897.565	-1.08
897.683	-8.06
897.8	-2.47
897.918	-4.59
898.036	2.12
898.153	-2.08
898.271	5.82
898.388	1.01
898.506	-2.09
898.624	-32.54
898.741	-3.39
898.859	9.9
898.976	4.3
899.094	-2.18
899.211	2.21
899.329	-7.19
899.447	-3.28
899.564	-2.87
899.682	-1.68
899.799	0.92
899.917	2.61
900.034	3.71
900.152	3.79
900.269	2.31
900.387	-3.79
900.504	0.81
900.622	-3.07
900.739	0.12
900.857	2.31
900.974	3.6
901.092	-2.58
901.209	11.44
901.326	4.2
901.444	4.99
901.561	3.69
901.679	8.1
901.796	4.22
901.914	1.41
902.031	3.8
902.148	13.43
902.266	2.8
902.383	11.02
902.501	-5.27
902.618	-10.17
902.735	-5.19
902.853	-2.88
902.97	-6.37
903.087	0.42
903.205	4.82
903.322	6.16
903.439	2.91
903.557	-0.48
903.674	8.42
903.791	-3.36
903.909	-0.28
904.026	0.02
904.143	-2.78
904.261	5.68
904.378	-6.34
904.495	0.52
904.612	-2.59
904.73	-3.87
904.847	-8.94
904.964	-3.18
905.081	-0.68
905.199	-2.97
905.316	0.91
905.433	0.62
905.55	-2.48
905.668	10.07
905.785	3.3
905.902	-4.57
906.019	1.42
906.136	4.18
906.254	8.78
906.371	10.01
906.488	18.27
906.605	5.09
906.722	14.42
906.839	3.61
906.957	0.12
907.074	11.81
907.191	16.36
907.308	33.85
907.425	24.8
907.542	9.8
907.659	13.31
907.776	8.01
907.893	-9.95
908.011	11.42
908.128	3.9
908.245	-3.99
908.362	3.61
908.479	5.29
908.596	0.02
908.713	11.81
908.83	-7.57
908.947	-0.68
909.064	1.42
909.181	9.23
909.298	7.72
909.415	-5.26
909.532	3.29
909.649	2.31
909.766	8.51
909.883	-6.25
910	6.67
910.117	8.52
910.234	5.49
910.351	5.98
910.468	-0.98
910.585	7.61
910.702	-2.59
910.819	9.15
910.936	4.41
911.053	15.08
911.17	13.85
911.287	13.31
911.403	12.75
911.52	21.1
911.637	43.98
911.754	73.74
911.871	245.01
911.988	1531.25
912.105	3364.54
912.222	1445.1
912.338	755.6
912.455	524.53
912.572	413.83
912.689	264.84
912.806	140.86
912.923	70.66
913.039	56.16
913.156	23.86
913.273	19.37
913.39	28
913.507	7.5
913.623	10.96
913.74	19.86
913.857	0.42
913.974	8.2
914.091	3.29
914.207	3.88
914.324	4.2
914.441	10.33
914.558	7.36
914.674	5.1
914.791	8.12
914.908	7.21
915.024	-8.83
915.141	9.25
915.258	17.14
915.375	7.91
915.491	-0.88
915.608	1.8
915.725	2.22
915.841	-6.58
915.958	3.98
916.075	1.6
916.191	16.54
916.308	-1.48
916.425	3.2
916.541	7.82
916.658	6.69
916.774	-5.68
916.891	9.1
917.008	7.47
917.124	5.6
917.241	1.22
917.357	7.79
917.474	-0.88
917.591	-1.99
917.707	0.91
917.824	3.48
917.94	9.78
918.057	2.31
918.173	-2.28
918.29	-2.38
918.406	2.7
918.523	1.41
918.639	2.31
918.756	8.41
918.872	11.25
918.989	13.54
919.105	27.72
919.222	61.14
919.338	48.47
919.455	25.51
919.571	42.72
919.688	27.12
919.804	-35.22
919.921	17.28
920.037	2.21
920.154	127.29
920.27	6.88
920.386	10.77
920.503	-2.49
920.619	0.81
920.736	0.81
920.852	7.62
920.968	-0.48
921.085	0.02
921.201	7.36
921.318	3.92
921.434	10.9
921.55	2.81
921.667	8.26
921.783	8.51
921.899	21.27
922.016	68.02
922.132	392.68
922.248	805.31
922.365	389.9
922.481	208.16
922.597	133.59
922.714	102.8
922.83	94.73
922.946	63.99
923.062	33.11
923.179	19.65
923.295	14.8
923.411	6.39
923.527	9.96
923.644	-5.18
923.76	10.11
923.876	-0.88
923.992	1.11
924.109	12.31
924.225	1.12
924.341	1.71
924.457	8.71
924.573	-2.19
924.69	11.91
924.806	9.98
924.922	-5.06
925.038	-3.78
925.154	4.3
925.27	1.92
925.387	0.71
925.503	-3.48
925.619	3.62
925.735	4.8
925.851	3.1
925.967	5.92
926.083	6.82
926.199	1.71
926.316	3.99
926.432	-4.89
926.548	-0.08
926.664	-0.48
926.78	7.63
926.896	-7.38
927.012	7.53
927.128	6.1
927.244	8.48
927.36	2.81
927.476	-3.67
927.592	-2.68
927.708	5.58
927.824	4.23
927.94	-3.08
928.056	-2.27
928.172	0.02
928.288	-0.08
928.404	2.11
928.52	-2.68
928.636	11.38
928.752	8.8
928.868	28.13
928.984	15.93
929.1	16.25
929.216	1.72
929.332	12.08
929.448	-1.48
929.564	6.27
929.68	-0.98
929.796	8.4
929.911	7.77
930.027	-3.58
930.143	5.52
930.259	-9.78
930.375	2.21
930.491	-10.72
930.607	-4.99
930.723	0.51
930.838	9.05
930.954	-1.08
931.07	9.71
931.186	0.02
931.302	3.4
931.418	7.96
931.533	0.02
931.649	-2.18
931.765	-2.17
931.881	7.88
931.997	3.71
932.112	-37.49
932.228	-11.32
932.344	-19
932.46	0.32
932.576	-17.38
932.691	-3.86
932.807	2.21
932.923	-4.47
933.038	-1.78
933.154	6.3
933.27	2.41
933.386	5.6
933.501	-3.99
933.617	8.42
933.733	14.89
933.848	-9.4
933.964	5.1
934.08	6.36
934.195	7.05
934.311	-1.89
934.427	-0.38
934.542	-0.38
934.658	3.69
934.774	3.91
934.889	16.19
935.005	19.56
935.121	31.08
935.236	42.71
935.352	29.3
935.467	18.78
935.583	16.28
935.699	8.59
935.814	10.22
935.93	7.07
936.045	-0.38
936.161	7.89
936.276	8.23
936.392	8.55
936.507	4.89
936.623	0.02
936.739	1.12
936.854	-5.95
936.97	-3.86
937.085	3.4
937.201	-6.97
937.316	5.3
937.432	2.21
937.547	10.5
937.663	1.91
937.778	2.39
937.893	-8.14
938.009	-5.27
938.124	1.41
938.24	3.1
938.355	3.19
938.471	1.01
938.586	2.8
938.702	11.56
938.817	0.22
938.932	12.68
939.048	5.8
939.163	-1.97
939.279	-1.47
939.394	11.43
939.509	-3.57
939.625	2.71
939.74	3.02
939.855	-4.28
939.971	8.92
940.086	14.03
940.201	7.98
940.317	-3.17
940.432	6.4
940.547	5.11
940.663	20.3
940.778	-1.89
940.893	-3.78
941.009	-1.67
941.124	-8.34
941.239	1.11
941.355	-1.28
941.47	-1.28
941.585	3.49
941.7	6.22
941.816	11.42
941.931	-6.34
942.046	-5.76
942.161	14.52
942.276	1.91
942.392	-7.83
942.507	-6.55
942.622	2.01
942.737	7.42
942.852	1.51
942.968	0.61
943.083	-10.71
943.198	-4.07
943.313	-1.88
943.428	7.25
943.544	-7.47
943.659	-5.97
943.774	4.52
943.889	8.02
944.004	-3.98
944.119	-5.17
944.234	3.39
944.349	-5.88
944.465	3.51
944.58	-2.38
944.695	0.81
944.81	-8.93
944.925	3.21
945.04	6.01
945.155	-7.15
945.27	-6.52
945.385	-0.58
945.5	11.33
945.615	2.9
945.73	14.19
945.845	5.41
945.96	3.22
946.075	5.09
946.19	4.19
946.305	15.06
946.42	3.71
946.535	1.01
946.65	5.28
946.765	-3.89
946.88	-3.58
946.995	14.75
947.11	1.21
947.225	4.3
947.34	4.61
947.455	4.31
947.57	-205.26
947.685	6.5
947.8	-5.16
947.915	-11.19
948.03	7.28
948.144	2.31
948.259	-1.98
948.374	-1.18
948.489	4.88
948.604	4.81
948.719	4.21
948.834	5.4
948.949	-5.15
949.063	-10.38
949.178	-0.88
949.293	-4.06
949.408	5.77
949.523	4.21
949.638	-1.78
949.752	-1.48
949.867	-3.46
949.982	2.82
950.097	-3.47
950.212	-0.38
950.326	5.27
950.441	-0.88
950.556	-1.48
950.671	-2.08
950.785	-2.27
950.9	-4.27
951.015	-5.79
951.13	3.91
951.244	-7.86
951.359	10.99
951.474	-4.48
951.588	11.64
951.703	1.51
951.818	11.18
951.932	-6.68
952.047	0.71
952.162	2.4
952.277	3.41
952.391	11.19
952.506	2.21
952.62	-5.44
952.735	0.41
952.85	-6.78
952.964	3.2
953.079	10.51
953.194	5.52
953.308	4.41
953.423	-10.04
953.537	0.71
953.652	3.01
953.767	5.12
953.881	8.9
953.996	-1.18
954.11	1.61
954.225	-3.18
954.339	-3.28
954.454	7.45
954.569	0.92
954.683	-1.18
954.798	0.91
954.912	3.6
955.027	-9.58
955.141	3.31
955.256	0.61
955.37	-7.05
955.485	-7.06
955.599	-2.38
955.714	3.21
955.828	4.1
955.943	0.72
956.057	-3.39
956.171	-3.47
956.286	-0.38
956.4	13.21
956.515	1.12
956.629	-6.46
956.744	3.48
956.858	1.71
956.972	3.21
957.087	-0.98
957.201	-3.78
957.316	-13.07
957.43	6.89
957.544	6.79
957.659	8.31
957.773	-1.28
957.887	-0.68
958.002	-10.92
958.116	2.21
958.23	10.2
958.345	-6.66
958.459	-2.37
958.573	1.6
958.688	-9.27
958.802	-14.9
958.916	-5.75
959.031	-10.82
959.145	5.91
959.259	-8.7
959.373	-0.68
959.488	-2.68
959.602	-10.27
959.716	-1.18
959.831	-1.38
959.945	5.48
960.059	0.41
960.173	10.66
960.287	9.77
960.402	-2.97
960.516	-1.18
960.63	-2.88
960.744	0.91
960.858	-1.87
960.973	-3.38
961.087	-9.97
961.201	9.57
961.315	-2.39
961.429	0.81
961.543	-2.77
961.658	8.59
961.772	-0.58
961.886	4.99
962	-11.26
962.114	3.21
962.228	-5.15
962.342	-6.48
962.456	-0.18
962.571	6.69
962.685	8.85
962.799	-1.08
962.913	5.72
963.027	-4.48
963.141	-10.4
963.255	-6.87
963.369	3.01
963.483	1.91
963.597	-1.38
963.711	-0.88
963.825	-5.88
963.939	1.41
964.053	5.28
964.167	2.91
964.281	-6.07
964.395	6.59
964.509	3.41
964.623	9.98
964.737	6.7
964.851	1.71
964.965	5.51
965.079	16.38
965.193	21.7
965.307	61.56
965.421	247.34
965.535	436.96
965.649	255.55
965.762	192.26
965.876	141.55
965.99	96.27
966.104	90.11
966.218	68.42
966.332	75.8
966.446	64.15
966.56	51.89
966.674	41.56
966.787	35.35
966.901	32.25
967.015	20.81
967.129	8.07
967.243	5.01
967.357	10.19
967.47	4.1
967.584	-0.88
967.698	1.51
967.812	6.18
967.926	2.31
968.039	4.18
968.153	-7.92
968.267	2.71
968.381	-13.84
968.494	6.06
968.608	1.8
968.722	6.5
968.836	-3.68
968.949	0.71
969.063	-5.37
969.177	-0.78
969.291	3.11
969.404	6.53
969.518	-0.88
969.632	3.72
969.745	-4.47
969.859	-5.37
969.973	-1.68
970.086	-6.68
970.2	2.31
970.314	2.9
970.427	-0.58
970.541	8.91
970.655	-0.18
970.768	3.61
970.882	6.1
970.996	8.5
971.109	-8.76
971.223	0.31
971.336	3.3
971.45	3.61
971.564	0.51
971.677	5.4
971.791	2.21
971.904	6.62
972.018	1.41
972.131	3.41
972.245	-9.74
972.358	8.21
972.472	2.11
972.586	3.01
972.699	10.37
972.813	126.9
972.926	-6.97
973.04	-1.29
973.153	4.2
973.267	-11.05
973.38	0.42
973.493	5.09
973.607	10
973.72	-4.19
973.834	29.01
973.947	9.57
974.061	-4.28
974.174	-14.78
974.288	2.31
974.401	-3.38
974.514	4.2
974.628	-0.28
974.741	2.01
974.855	-5.28
974.968	-2.59
975.081	-3.88
975.195	-3.18
975.308	-13.72
975.422	-2.77
975.535	3.2
975.648	-4.17
975.762	-1.77
975.875	-0.48
975.988	0.71
976.102	3.91
976.215	-1.28
976.328	-5.64
976.442	0.91
976.555	-5.19
976.668	-2.46
976.781	7.68
976.895	4.99
977.008	2.71
977.121	8.3
977.235	-14.6
977.348	2.21
977.461	9.42
977.574	-8.06
977.688	1.11
977.801	7.19
977.914	12.27
978.027	10.49
978.14	39.06
978.254	44.68
978.367	28.87
978.48	10.09
978.593	11.1
978.706	10.17
978.82	1.81
978.933	8.38
979.046	15.49
979.159	8.7
979.272	3.51
979.385	4.29
979.498	6.11
979.612	4.43
979.725	0.31
979.838	9.4
979.951	8.09
980.064	-2.18
980.177	6.7
980.29	6.68
980.403	3.11
980.516	-1.18
980.629	8.82
980.743	10.37
980.856	-0.98
980.969	-9.07
981.082	-5.68
981.195	2.9
981.308	0.21
981.421	6.8
981.534	-4.88
981.647	-7.67
981.76	-4.85
981.873	0.31
981.986	4
982.099	5.6
982.212	-0.08
982.325	-3.98
982.438	-4.38
982.551	-9.18
982.664	6.59
982.777	-3.18
982.889	9.12
983.002	6.59
983.115	8.61
983.228	3.1
983.341	-4.57
983.454	5.49
983.567	2.62
983.68	-4.87
983.793	3.8
983.906	5.7
984.019	4.12
984.131	7.99
984.244	0.61
984.357	5.7
984.47	10.42
984.583	-3.49
984.696	1.21
984.808	2.41
984.921	-12.72
985.034	-8.38
985.147	8.51
985.26	-0.38
985.373	4.7
985.485	3.41
985.598	3.71
985.711	-7.29
985.824	-0.18
985.936	-3.59
986.049	-2.17
986.162	4.2
986.275	-16.57
986.387	-9.56
986.5	-2.98
986.613	7.39
986.726	-6.73
986.838	4
986.951	-4.08
987.064	8.88
987.176	-0.78
987.289	0.02
987.402	8.7
987.514	5.68
987.627	-5.16
987.74	2.42
987.852	10.38
987.965	3.11
988.078	-1.78
988.19	0.82
988.303	14.1
988.416	-1.98
988.528	4.8
988.641	-4.19
988.753	4.71
988.866	-1.68
988.979	-3.97
989.091	-5.56
989.204	1.01
989.316	2.5
989.429	-4.67
989.541	-1.88
989.654	-10.29
989.767	-0.68
989.879	-2.28
989.992	-3.28
990.104	-0.89
990.217	1.31
990.329	2.61
990.442	2.52
990.554	4.21
990.667	0.91
990.779	-3.97
990.892	6.01
991.004	0.51
991.117	1.31
991.229	3.51
991.342	-0.28
991.454	-2.87
991.566	-0.98
991.679	0.22
991.791	-4.87
991.904	-3.48
992.016	0.71
992.129	-39.15
992.241	-4.28
992.353	4.01
992.466	-2.87
992.578	5.19
992.691	2.01
992.803	-0.18
992.915	1.41
993.028	-8.36
993.14	7.61
993.252	2.41
993.365	3.41
993.477	-5.98
993.589	2.51
993.702	4.32
993.814	0.51
993.926	7.69
994.039	3.42
994.151	-0.38
994.263	2.6
994.375	-2.28
994.488	-16.09
994.6	-12.39
994.712	-2.37
994.824	-3.08
994.937	0.21
995.049	3.21
995.161	-3.17
995.273	3.3
995.386	3.41
995.498	-2.97
995.61	-1.28
995.722	2.2
995.834	-5.59
995.947	-0.28
996.059	6.09
996.171	-7.98
996.283	-2.78
996.395	2.51
996.507	1.11
996.62	9.26
996.732	2.21
996.844	12.98
996.956	2.8
997.068	1.21
997.18	-10.36
997.292	-3.48
997.404	-7.15
997.517	-6.5
997.629	-10.61
997.741	10.59
997.853	-7.27
997.965	16.03
998.077	-5.98
998.189	-5.58
998.301	3.5
998.413	0.91
998.525	4.7
998.637	-16.65
998.749	4.09
998.861	6.59
998.973	5.02
999.085	22.28
999.197	6.78
999.309	-4.77
999.421	5.6
999.533	-0.08
999.645	2.1
999.757	1.71
999.869	-5.36
999.981	-12.85
1000.093	0.82
1000.205	3.69
1000.317	-5.69
1000.429	2.31
1000.541	4.61
1000.653	-4.45
1000.765	8.21
1000.876	3.7
1000.988	6.1
1001.1	2.51
1001.212	7
1001.324	-5.18
1001.436	8.31
1001.548	7.88
1001.66	-2.38
1001.771	-3.69
1001.883	-3.86
1001.995	-3.08
1002.107	-4.59
1002.219	0.02
1002.331	3.9
1002.442	-3.29
1002.554	1.51
1002.666	-0.58
1002.778	-4.67
1002.89	2.7
1003.001	-5.08
1003.113	-5.39
1003.225	-0.58
1003.337	-6.75
1003.448	-6.17
1003.56	0.81
1003.672	3.01
1003.784	-13.52
1003.895	-1.18
1004.007	6.62
1004.119	0.91
1004.231	7.09
1004.342	-14.27
1004.454	-0.98
1004.566	-0.18
1004.677	-10.84
1004.789	-1.58
1004.901	4.31
1005.012	6.37
1005.124	11.03
1005.236	1.11
1005.347	7.58
1005.459	-7.26
1005.571	-3.29
1005.682	7.2
1005.794	-5.58
1005.905	9.31
1006.017	5.59
1006.129	-5.78
1006.24	3.92
1006.352	-0.59
1006.463	-6.16
1006.575	-4.98
1006.686	-5.69
1006.798	-1.58
1006.91	-1.48
1007.021	-6.07
1007.133	-2.58
1007.244	-3.47
1007.356	3.81
1007.467	5.1
1007.579	-8.58
1007.69	-5.75
1007.802	1.11
1007.913	4.1
1008.025	-5.38
1008.136	14.06
1008.248	-6.17
1008.359	5
1008.471	1.71
1008.582	-6.35
1008.693	2.9
1008.805	15.6
1008.916	12.38
1009.028	-1.67
1009.139	4.11
1009.251	-3.28
1009.362	1.61
1009.473	-4.37
1009.585	3.31
1009.696	-6.19
1009.808	9.6
1009.919	-2.68
1010.03	0.82
1010.142	-20.4
1010.253	-2.78
1010.364	-1.88
1010.476	3.99
1010.587	4.91
1010.698	-1.08
1010.81	5.19
1010.921	6.5
1011.032	7.51
1011.144	0.81
1011.255	-6.37
1011.366	-9.27
1011.478	0.21
1011.589	0.61
1011.7	8.49
1011.811	3.31
1011.923	-2.58
1012.034	-7.87
1012.145	6.39
1012.256	-0.48
1012.368	-4.16
1012.479	4.22
1012.59	2.9
1012.701	-4.07
1012.812	-6.36
1012.924	-4.17
1013.035	-3.07
1013.146	-3.37
1013.257	12.3
1013.368	-1.38
1013.48	-4.57
1013.591	8.13
1013.702	8.11
1013.813	-4.27
1013.924	-0.78
1014.035	-12.79
1014.146	5.5
1014.257	-5.57
1014.369	-0.78
1014.48	3.9
1014.591	2.91
1014.702	7.21
1014.813	-6.95
1014.924	0.11
1015.035	0.22
1015.146	0.51
1015.257	-10.02
1015.368	3.9
1015.479	-8.87
1015.59	1.51
1015.701	-10.25
1015.812	-0.28
1015.924	-8.98
1016.035	4.43
1016.146	0.92
1016.257	-7.17
1016.368	7.41
1016.479	-1.38
1016.59	-7.78
1016.7	0.61
1016.811	0.71
1016.922	1.01
1017.033	1.61
1017.144	-1.98
1017.255	4.12
1017.366	8.19
1017.477	-6.86
1017.588	2.31
1017.699	0.31
1017.81	13.66
1017.921	-3.47
1018.032	9.51
1018.143	-2.98
1018.253	2.6
1018.364	-1.97
1018.475	1.62
1018.586	-5.09
1018.697	-1.68
1018.808	0.41
1018.919	1.31
1019.029	-8.76
1019.14	6.41
1019.251	-9.56
1019.362	-1.28
1019.473	-4.99
1019.584	5.6
1019.694	2.52
1019.805	0.51
1019.916	-11.3
1020.027	9.91
1020.137	6.1
1020.248	0.61
1020.359	-0.18
1020.47	-1.18
1020.581	-7.16
1020.691	-7.36
1020.802	-4.76
1020.913	-10.16
1021.023	-0.78
1021.134	5.98
1021.245	-8.25
1021.356	11.19
1021.466	-14.26
1021.577	3.7
1021.688	2.5
1021.798	6.2
1021.909	-21.58
1022.02	4.49
1022.13	-1.48
1022.241	0.81
1022.352	-5.49
1022.462	11.58
1022.573	5.3
1022.683	4.21
1022.794	6.87
1022.905	-7.26
1023.015	6.49
1023.126	-9.78
1023.236	-4.18
1023.347	-9.93
1023.458	2.31
1023.568	-3.57
1023.679	4.2
1023.789	-4.07
1023.9	-4.48
1024.01	0.51
1024.121	0.11
1024.231	11.08
1024.342	5.01
1024.453	0.12
1024.563	-0.18
1024.674	8.89
1024.784	-4.78
1024.895	2.61
1025.005	0.51
1025.116	10.1
1025.226	2.9
1025.336	11.52
1025.447	2.51
1025.557	-1.09
1025.668	-0.18
1025.778	2.82
1025.889	0.51
1025.999	13.65
1026.11	5.6
1026.22	-8.17
1026.33	0.51
1026.441	-6.64
1026.551	2.31
1026.662	1.82
1026.772	-4.17
1026.882	-1.97
1026.993	2.81
1027.103	-0.68
1027.213	-4.28
1027.324	-2.38
1027.434	1.42
1027.544	5.51
1027.655	1.31
1027.765	-6.29
1027.875	2.6
1027.986	-9.77
1028.096	1.51
1028.206	8.88
1028.317	-4.29
1028.427	-2.07
1028.537	-7.43
1028.647	-6.16
1028.758	-6.2
1028.868	0.81
1028.978	1.41
1029.088	-2.27
1029.199	-7.49
1029.309	-3.97
1029.419	7.76
1029.529	13.92
1029.639	1.22
1029.75	-2.49
1029.86	9.25
1029.97	-0.98
1030.08	-4.98
1030.19	-5.28
1030.301	-0.18
1030.411	-5.26
1030.521	2.11
1030.631	3.21
1030.741	4.1
1030.851	3.4
1030.961	-1.78
1031.072	5.21
1031.182	-1.08
1031.292	0.81
1031.402	0.21
1031.512	-22.81
1031.622	5.51
1031.732	3.81
1031.842	4.81
1031.952	-5.79
1032.062	-0.58
1032.172	-0.78
1032.282	-2.28
1032.393	-5.39
1032.503	-6.76
1032.613	8.07
1032.723	7.5
1032.833	5.99
1032.943	8.71
1033.053	5.5
1033.163	-8.7
1033.273	-7.76
1033.383	-0.48
1033.493	-2.97
1033.603	-6.98
1033.713	0.61
1033.823	-0.28
1033.932	-9.31
1034.042	3.81
1034.152	-1.68
1034.262	2.3
1034.372	-0.38
1034.482	8
1034.592	-3.87
1034.702	0.61
1034.812	-4.07
1034.922	2.11
1035.032	5.21
1035.141	1.21
1035.251	-0.98
1035.361	-5.39
1035.471	10.51
1035.581	-1.98
1035.691	0.91
1035.801	1.01
1035.91	-1.08
1036.02	0.11
1036.13	-0.78
1036.24	-1.98
1036.35	-11.07
1036.46	-3.27
1036.569	-0.48
1036.679	-2.28
1036.789	-6.18
1036.899	-2.39
1037.008	4.41
1037.118	-2.38
1037.228	-7.86
1037.338	-7.08
1037.447	7.88
1037.557	-2.68
1037.667	-17.41
1037.777	1.11
1037.886	-3.38
1037.996	-10.59
1038.106	7.22
1038.215	-4.37
1038.325	-1.67
1038.435	0.51
1038.544	5.42
1038.654	-3.08
1038.764	-0.58
