Data from 191228_Ar05mT_400W_ALA10_8000ms_Subt2_02-19-51-565.txt Node
Date: Sun Dec 29 02:19:51 KST 2019
User: L102
Spectrometer: HR4D2517
Trigger mode: 4
Integration Time (sec): 8.000000E0
Scans to average: 1
Electric dark correction enabled: true
Nonlinearity correction enabled: true
Boxcar width: 0
XAxis mode: Wavelengths
Number of Pixels in Spectrum: 3648
>>>>>Begin Spectral Data<<<<<
597.141	3.84
597.272	3.84
597.404	3.84
597.536	8.81
597.668	11.63
597.8	-9.21
597.932	6.17
598.064	-3.27
598.196	1.51
598.328	1.51
598.46	-3.87
598.591	8.07
598.723	5.83
598.855	2.42
598.987	-0.29
599.119	-8.76
599.251	4.12
599.383	-4.29
599.514	9.16
599.646	5.41
599.778	14.93
599.91	16.86
600.042	1.41
600.173	1.02
600.305	3.11
600.437	10.23
600.569	6.48
600.701	15.64
600.832	2.12
600.964	0.62
601.096	11.7
601.228	11.05
601.359	2.92
601.491	7.42
601.623	16.99
601.755	15.46
601.886	11.65
602.018	13.1
602.15	38.19
602.281	32.98
602.413	34.64
602.545	37.78
602.677	41.54
602.808	85.27
602.94	112.27
603.072	110.75
603.203	53.27
603.335	19.18
603.467	7.73
603.598	18.42
603.73	15.83
603.862	22.75
603.993	64.87
604.125	58.87
604.256	51.42
604.388	23.25
604.52	8.73
604.651	2.31
604.783	-2.88
604.915	10.49
605.046	11.81
605.178	9.33
605.309	11.9
605.441	28.29
605.572	23.21
605.704	18.32
605.836	15.34
605.967	13.46
606.099	-4.48
606.23	-1.68
606.362	7.91
606.493	-0.58
606.625	-2.48
606.756	6.22
606.888	-7.61
607.019	-5.29
607.151	0.02
607.282	9.11
607.414	2.61
607.545	-3.27
607.677	4.11
607.808	17.47
607.94	6.47
608.071	-0.68
608.203	8.73
608.334	2.02
608.466	15.59
608.597	4.62
608.728	13.2
608.86	5.81
608.991	1.12
609.123	11.42
609.254	6.41
609.386	5.21
609.517	5.68
609.648	32.16
609.78	14.12
609.911	14.24
610.043	6.78
610.174	22.19
610.305	27.38
610.437	20
610.568	13.14
610.699	10.05
610.831	3.52
610.962	3.52
611.093	4.31
611.225	0.21
611.356	19.74
611.487	-2.59
611.619	2.9
611.75	2.81
611.881	4.02
612.013	7.8
612.144	-3.57
612.275	-2.86
612.406	6.11
612.538	-1.99
612.669	13.47
612.8	11.47
612.931	2.32
613.063	5.42
613.194	-3.29
613.325	1.01
613.456	10.51
613.588	2.72
613.719	-4.67
613.85	0.71
613.981	6.21
614.112	23.36
614.244	36.95
614.375	31.9
614.506	20.91
614.637	9.89
614.768	0.91
614.9	15.89
615.031	11.03
615.162	3.92
615.293	16.84
615.424	26.2
615.555	1.92
615.686	0.22
615.818	14.99
615.949	-1.48
616.08	13.45
616.211	14.92
616.342	16.42
616.473	4.01
616.604	4.83
616.735	25.11
616.866	37.21
616.998	39.73
617.129	32.38
617.26	10.72
617.391	-6.86
617.522	4.42
617.653	26.44
617.784	3.42
617.915	-7.36
618.046	4.81
618.177	2.21
618.308	2.51
618.439	4.49
618.57	8.56
618.701	10.44
618.832	-2.39
618.963	1.31
619.094	-0.08
619.225	-3.08
619.356	-3.09
619.487	-9.64
619.618	1.11
619.749	5.51
619.88	-3.38
620.011	7.31
620.142	6.2
620.273	6.01
620.404	-1.68
620.535	8.98
620.665	16.59
620.796	14.01
620.927	23.03
621.058	24.58
621.189	30.31
621.32	27.46
621.451	9.63
621.582	11.74
621.713	11.82
621.844	-6.09
621.974	11.24
622.105	1.11
622.236	5.98
622.367	2.82
622.498	4.02
622.629	4.41
622.759	-9.97
622.89	1.22
623.021	1.91
623.152	-11.48
623.283	5.7
623.414	5.33
623.544	-4.58
623.675	-3.96
623.806	5.59
623.937	0.02
624.067	-12.2
624.198	6.49
624.329	9.99
624.46	-39.81
624.59	5.51
624.721	8.58
624.852	8.79
624.983	2.51
625.113	1.81
625.244	10.04
625.375	10.73
625.506	1.72
625.636	-1.98
625.767	-0.08
625.898	10.36
626.028	4.41
626.159	-1.99
626.29	3.3
626.42	11.4
626.551	-2.59
626.682	5.81
626.812	3.49
626.943	5.5
627.074	-0.58
627.204	8.52
627.335	15.78
627.466	2.69
627.596	5.52
627.727	1.82
627.857	-11.06
627.988	7.51
628.119	11.21
628.249	5.91
628.38	10.75
628.51	-4.97
628.641	-1.58
628.772	4.42
628.902	4.7
629.033	4.31
629.163	7.92
629.294	27.23
629.424	32.91
629.555	34.16
629.685	12.32
629.816	6.42
629.946	1.71
630.077	0.12
630.207	4.62
630.338	28.66
630.468	24.53
630.599	24.94
630.729	9.93
630.86	16.04
630.99	21
631.121	2.71
631.251	3.11
631.382	-15.52
631.512	3.81
631.643	6.97
631.773	0.82
631.904	4.31
632.034	-0.78
632.164	4.1
632.295	5.61
632.425	7.82
632.556	-5.94
632.686	-3.96
632.816	-0.79
632.947	7.83
633.077	-0.08
633.208	6.11
633.338	1.42
633.468	5.71
633.599	2.5
633.729	-0.58
633.859	-6.7
633.99	-2.49
634.12	0.81
634.25	-6.59
634.381	-2.39
634.511	-0.88
634.641	6.01
634.772	9.48
634.902	4.41
635.032	8.51
635.163	7.42
635.293	-3.77
635.423	-0.18
635.553	2.72
635.684	-0.98
635.814	7.38
635.944	6.11
636.074	0.32
636.205	12.01
636.335	5.47
636.465	13.55
636.595	15.72
636.726	7.6
636.856	18.02
636.986	-11.59
637.116	11.64
637.246	11.1
637.377	3.79
637.507	4.21
637.637	5.41
637.767	11.38
637.897	6.77
638.027	19.31
638.158	16.33
638.288	26.84
638.418	14.87
638.548	0.22
638.678	8.4
638.808	1.11
638.938	-8.62
639.069	0.91
639.199	-3.09
639.329	-4.48
639.459	-1.49
639.589	-1.89
639.719	-4.28
639.849	-5.18
639.979	-9.29
640.109	2.12
640.239	1.12
640.369	1.61
640.5	5.19
640.63	-7.09
640.76	18.62
640.89	23.63
641.02	22.73
641.15	22.8
641.28	38.8
641.41	52.64
641.54	41.07
641.67	14.95
641.8	9.21
641.93	5.8
642.06	-8.27
642.19	-5.87
642.32	-5.87
642.45	-0.18
642.58	15.38
642.71	0.61
642.84	0.02
642.97	7.01
643.1	-1.78
643.229	-5.28
643.359	-6.19
643.489	10.15
643.619	13.73
643.749	1.62
643.879	2.02
644.009	-2.98
644.139	16.83
644.269	-1.38
644.399	7.41
644.529	5.79
644.658	-2.47
644.788	-0.98
644.918	11.81
645.048	4.31
645.178	-4.67
645.308	6.49
645.438	12.2
645.567	7.17
645.697	6.48
645.827	3.91
645.957	6.3
646.087	14.37
646.216	14.08
646.346	19.8
646.476	17.53
646.606	13.27
646.736	18.82
646.865	14.3
646.995	5.21
647.125	-1.18
647.255	0.51
647.384	4.11
647.514	-2.09
647.644	9.57
647.774	5.02
647.903	19.77
648.033	-4.98
648.163	6.1
648.293	-10.05
648.422	-3.29
648.552	-0.08
648.682	-0.38
648.811	-3.87
648.941	-4.29
649.071	-1.18
649.2	6.37
649.33	2.72
649.46	3.62
649.589	2.41
649.719	8.1
649.849	8.47
649.978	3.22
650.108	-3.49
650.238	5.59
650.367	3.59
650.497	8.22
650.626	1.92
650.756	7.17
650.886	-5.48
651.015	-0.38
651.145	5.9
651.274	8.76
651.404	3.4
651.534	5.11
651.663	3.72
651.793	0.02
651.922	1.11
652.052	-10.87
652.181	3.02
652.311	9.86
652.44	6.22
652.57	-4.08
652.699	-0.38
652.829	2.81
652.958	-0.78
653.088	14.15
653.217	-3.19
653.347	18.62
653.476	11.91
653.606	6.51
653.735	13.77
653.865	-2.77
653.994	0.02
654.124	9.13
654.253	-5.09
654.383	6.71
654.512	5.8
654.642	-0.18
654.771	-4.49
654.9	-0.48
655.03	-3.37
655.159	-0.18
655.289	13.2
655.418	8.36
655.547	3.69
655.677	11.58
655.806	-1.98
655.936	12.52
656.065	25.14
656.194	0.51
656.324	13.55
656.453	4.31
656.582	-5.96
656.712	5.72
656.841	3.12
656.97	9.3
657.1	0.61
657.229	-5.09
657.358	-11.7
657.488	9.88
657.617	-13.76
657.746	-1.29
657.876	7.02
658.005	-6.59
658.134	5.9
658.263	-1.58
658.393	-3.78
658.522	-2.37
658.651	10.51
658.78	0.02
658.91	-3.28
659.039	5.11
659.168	16.64
659.297	6.92
659.427	9.12
659.556	15.94
659.685	12.92
659.814	7.73
659.943	2.31
660.073	12.85
660.202	18.8
660.331	34.97
660.46	17.5
660.589	8.1
660.719	-1.87
660.848	5.63
660.977	-4.98
661.106	-0.99
661.235	15.55
661.364	-0.68
661.493	8.51
661.623	3.31
661.752	3.8
661.881	-0.68
662.01	2.71
662.139	2.4
662.268	7.4
662.397	-4.59
662.526	-0.38
662.655	-4.78
662.784	0.21
662.913	-8.56
663.043	5.3
663.172	-0.08
663.301	-4.95
663.43	-1.08
663.559	1.72
663.688	1.91
663.817	-0.58
663.946	10.52
664.075	-13.32
664.204	-0.08
664.333	-2.39
664.462	0.51
664.591	-4.29
664.72	-0.18
664.849	9.47
664.978	13.49
665.107	10.8
665.236	11.48
665.365	5.99
665.494	11.41
665.623	11.84
665.751	23.57
665.88	23.6
666.009	12.12
666.138	17.31
666.267	25.44
666.396	17.1
666.525	5.01
666.654	-0.99
666.783	-4.87
666.912	1.71
667.041	14.6
667.169	14.39
667.298	12.96
667.427	19.5
667.556	11.74
667.685	13.02
667.814	0.61
667.943	6.6
668.071	9.11
668.2	12.24
668.329	-1.48
668.458	4.09
668.587	-2.89
668.716	2.12
668.844	0.11
668.973	2.3
669.102	4.01
669.231	12.09
669.359	9.49
669.488	8.89
669.617	9.8
669.746	17.74
669.875	6.8
670.003	12.93
670.132	2.31
670.261	-1.69
670.389	-6.58
670.518	-2.07
670.647	-9.69
670.776	1.41
670.904	-1.18
671.033	2.31
671.162	9.72
671.29	-6.47
671.419	14.5
671.548	0.92
671.676	5.52
671.805	15.94
671.934	7.57
672.062	20.63
672.191	2.11
672.32	13.69
672.448	6.29
672.577	9.66
672.706	2.52
672.834	-5.98
672.963	7.02
673.092	9.77
673.22	6.02
673.349	-0.08
673.477	20.55
673.606	10.49
673.735	21.12
673.863	19.98
673.992	25.75
674.12	37.24
674.249	34.36
674.377	51.77
674.506	67.38
674.634	93.08
674.763	109.44
674.892	136.4
675.02	172.15
675.149	203.68
675.277	136.8
675.406	62.97
675.534	43.33
675.663	25.18
675.791	7.2
675.92	11.12
676.048	14.58
676.176	30.64
676.305	25.36
676.433	28.4
676.562	37.49
676.69	19.44
676.819	5.61
676.947	0.62
677.076	-8.71
677.204	-0.68
677.332	13.68
677.461	3.01
677.589	-3.08
677.718	7
677.846	11.44
677.975	-2.68
678.103	-29.03
678.231	1.31
678.36	3.41
678.488	3.81
678.616	9.79
678.745	0.51
678.873	-4.27
679.001	13.39
679.13	7.43
679.258	3.9
679.386	10.68
679.515	-3.58
679.643	3.51
679.771	0.61
679.9	-3.69
680.028	10.03
680.156	7.11
680.285	9.28
680.413	1.02
680.541	1.31
680.669	7.28
680.798	-1.48
680.926	-1.49
681.054	6.31
681.182	0.81
681.311	9.86
681.439	7.69
681.567	7.02
681.695	18.2
681.824	5.02
681.952	-2.69
682.08	-7.3
682.208	-3.69
682.336	6.11
682.465	-1.38
682.593	1.81
682.721	15.41
682.849	22.19
682.977	7.01
683.105	1.51
683.234	3.11
683.362	9.17
683.49	-8.47
683.618	-3.49
683.746	-12.41
683.874	2.21
684.002	-0.78
684.131	6.62
684.259	-3.47
684.387	5.91
684.515	5.72
684.643	1.61
684.771	2.21
684.899	3.41
685.027	5.53
685.155	16.68
685.283	12.04
685.411	17.58
685.539	3.01
685.667	21.49
685.796	15.58
685.924	39.88
686.052	22.78
686.18	42.62
686.308	51.51
686.436	74.11
686.564	86.82
686.692	116.13
686.82	130.85
686.948	175.32
687.076	164.64
687.204	75.84
687.332	34.86
687.459	28.09
687.587	21.55
687.715	20.29
687.843	27.26
687.971	27.54
688.099	21.99
688.227	26.05
688.355	36.91
688.483	28.17
688.611	37.02
688.739	32.92
688.867	18.97
688.995	0.02
689.122	-7.3
689.25	-0.28
689.378	-3.66
689.506	0.61
689.634	-10.87
689.762	1.51
689.89	2.01
690.018	5.99
690.145	-5.58
690.273	12.29
690.401	2.11
690.529	5.01
690.657	14.49
690.784	7.51
690.912	4.99
691.04	7.86
691.168	8.71
691.296	9.79
691.423	5.09
691.551	8.69
691.679	-1.28
691.807	-0.38
691.935	8.61
692.062	19.22
692.19	21.6
692.318	20.09
692.446	21.74
692.573	22.31
692.701	27.76
692.829	29.53
692.956	32.65
693.084	39.58
693.212	45.9
693.34	54.28
693.467	73.9
693.595	78.16
693.723	75.14
693.85	27.89
693.978	29.49
694.106	22.96
694.233	16.08
694.361	23.13
694.489	23.2
694.616	44.7
694.744	46.82
694.871	53.82
694.999	67.12
695.127	68.4
695.254	70.12
695.382	74.15
695.509	102.03
695.637	131.94
695.765	180.93
695.892	214.82
696.02	244.87
696.147	280.46
696.275	350.03
696.403	429.51
696.53	308.09
696.658	113.82
696.785	33.79
696.913	6.51
697.04	25.83
697.168	4.6
697.295	11.39
697.423	10.49
697.55	17.11
697.678	-7.46
697.805	1.91
697.933	10.71
698.06	-7.74
698.188	0.82
698.315	-0.19
698.443	13.72
698.57	1.91
698.698	14.03
698.825	3.01
698.952	8.62
699.08	8.04
699.207	5.32
699.335	-4.39
699.462	6.82
699.59	8.13
699.717	3.1
699.844	4.51
699.972	2.71
700.099	4.79
700.227	-7.53
700.354	-3.18
700.481	10.29
700.609	16.31
700.736	12.9
700.863	1.01
700.991	5.91
701.118	3.5
701.245	3
701.373	9.85
701.5	9.08
701.627	9.89
701.755	12.97
701.882	29.86
702.009	20.61
702.137	33.66
702.264	52.69
702.391	62.38
702.518	70.89
702.646	82.97
702.773	102.21
702.9	121.26
703.027	96.3
703.155	20.61
703.282	15.08
703.409	14.8
703.536	14.21
703.664	7.1
703.791	10.4
703.918	2.21
704.045	16.44
704.172	17.72
704.3	23.91
704.427	5.91
704.554	25.79
704.681	17.11
704.808	15.16
704.936	18.01
705.063	33.95
705.19	46.57
705.317	49.09
705.444	61.26
705.571	78.58
705.698	99.48
705.826	117.63
705.953	162.15
706.08	208.46
706.207	234.83
706.334	289.92
706.461	354.48
706.588	449.48
706.715	376.82
706.842	183.88
706.969	61.19
707.096	17.33
707.224	6.69
707.351	17.74
707.478	0.61
707.605	1.61
707.732	15.59
707.859	6.9
707.986	2.72
708.113	3.92
708.24	-2.08
708.367	9.1
708.494	6.89
708.621	5.51
708.748	15.28
708.875	3.79
709.002	-4.67
709.129	0.91
709.256	1.01
709.383	0.21
709.51	15.1
709.637	12.85
709.764	10.88
709.89	13.16
710.017	18.8
710.144	14.23
710.271	12.65
710.398	10.04
710.525	26.3
710.652	21.07
710.779	17.47
710.906	13.75
711.033	13.1
711.16	-0.88
711.286	-2.08
711.413	12.44
711.54	10.67
711.667	9.32
711.794	16.81
711.921	2.6
712.048	14.62
712.174	11.72
712.301	26.04
712.428	32.08
712.555	20.75
712.682	6.92
712.808	4.21
712.935	2.01
713.062	4.52
713.189	1.71
713.316	-2.08
713.442	10.89
713.569	0.61
713.696	21.02
713.823	-62.77
713.949	27.83
714.076	38.49
714.203	44.57
714.33	42.71
714.456	53.69
714.583	49.78
714.71	53.91
714.837	21.65
714.963	13.58
715.09	8.9
715.217	17.2
715.343	28.31
715.47	16.14
715.597	22.91
715.723	19.46
715.85	24.63
715.977	5.3
716.103	12.88
716.23	17.28
716.357	7.69
716.483	4.4
716.61	-4.09
716.736	2.11
716.863	4.4
716.99	-1.87
717.116	-3.18
717.243	5.21
717.369	4.71
717.496	16.75
717.623	16.22
717.749	3.9
717.876	-5.38
718.002	8.19
718.129	8.12
718.255	5.71
718.382	-0.48
718.509	2.6
718.635	7.79
718.762	3.81
718.888	4.08
719.015	13.18
719.141	-0.08
719.268	8.71
719.394	10.8
719.521	18.5
719.647	17.84
719.774	26.19
719.9	43.54
720.027	48.05
720.153	48.14
720.279	53.6
720.406	66.13
720.532	82.82
720.659	72.53
720.785	45.15
720.912	6.29
721.038	4.9
721.165	3.32
721.291	-4.58
721.417	12.47
721.544	2.41
721.67	8.42
721.797	-9.6
721.923	1.61
722.049	8.75
722.176	0.61
722.302	15.89
722.428	0.61
722.555	-7.87
722.681	14.19
722.807	6.41
722.934	6.12
723.06	9.55
723.186	9.28
723.313	2.82
723.439	-4.8
723.565	7.42
723.692	11.52
723.818	8.01
723.944	6.01
724.07	2
724.197	4.52
724.323	3.61
724.449	9.37
724.576	16.2
724.702	4.29
724.828	14.77
724.954	7.72
725.081	9.16
725.207	11.01
725.333	12.51
725.459	16.38
725.585	25.08
725.712	31.61
725.838	30.49
725.964	42.01
726.09	53.19
726.216	67.09
726.343	75.05
726.469	88.74
726.595	76.57
726.721	77.41
726.847	105.01
726.973	112.16
727.099	125
727.226	131.53
727.352	54.63
727.478	13.28
727.604	9.08
727.73	11.93
727.856	7.61
727.982	12.37
728.108	10.29
728.234	9.93
728.361	19.25
728.487	14.99
728.613	10.9
728.739	13.11
728.865	0.21
728.991	8.48
729.117	7.61
729.243	4.41
729.369	6
729.495	3
729.621	10.27
729.747	7.58
729.873	2.42
729.999	25.42
730.125	12.07
730.251	21.89
730.377	36.87
730.503	38.47
730.629	40.09
730.755	57.97
730.881	64.86
731.007	76.54
731.133	66.35
731.259	42.61
731.385	33.45
731.511	47.39
731.637	9.5
731.763	5.5
731.888	8.6
732.014	2.7
732.14	2.51
732.266	11.14
732.392	9.69
732.518	11.78
732.644	2.22
732.77	8.8
732.896	20.27
733.021	10.89
733.147	9.99
733.273	12.99
733.399	15.2
733.525	21.94
733.651	14.69
733.777	25.94
733.902	26.63
734.028	34.93
734.154	44.73
734.28	47.71
734.406	65.06
734.531	68.46
734.657	86.31
734.783	93.28
734.909	106.7
735.034	134.21
735.16	164.63
735.286	135.72
735.412	58.31
735.537	44.72
735.663	41.65
735.789	49.12
735.915	72.2
736.04	111.76
736.166	121.82
736.292	164.53
736.418	179.99
736.543	222.18
736.669	254.89
736.795	292.09
736.92	344.36
737.046	475.15
737.172	420.09
737.297	305.46
737.423	309.32
737.549	340.13
737.674	402.2
737.8	448.38
737.926	528.78
738.051	599.37
738.177	800.27
738.302	848.08
738.428	411.79
738.554	145.96
738.679	51.74
738.805	34.26
738.93	38.81
739.056	47.64
739.182	51.23
739.307	12.5
739.433	31.93
739.558	1.01
739.684	11
739.809	14.1
739.935	21.01
740.06	15.64
740.186	26.37
740.311	20.47
740.437	21.68
740.562	24.77
740.688	15.81
740.813	29.49
740.939	35.8
741.064	42.63
741.19	44.77
741.315	28.93
741.441	18.6
741.566	26.19
741.692	35.52
741.817	36.2
741.943	37.95
742.068	37.03
742.194	41.11
742.319	58.36
742.444	57.65
742.57	44.59
742.695	41.25
742.821	33.23
742.946	32.35
743.071	42.03
743.197	50.94
743.322	72.98
743.448	67.68
743.573	45.86
743.698	25.72
743.824	11.59
743.949	16.69
744.074	12.98
744.2	8.08
744.325	14.44
744.45	11.59
744.576	5.31
744.701	21.69
744.826	17.44
744.952	8.53
745.077	18.48
745.202	15.36
745.327	4.61
745.453	20.15
745.578	25.58
745.703	21.74
745.828	21.45
745.954	25.37
746.079	21.5
746.204	32.92
746.329	20.36
746.455	30.88
746.58	25.9
746.705	39.66
746.83	28.3
746.956	34.71
747.081	41.97
747.206	53.36
747.331	49.31
747.456	48.77
747.582	62.46
747.707	75.82
747.832	80.89
747.957	87.66
748.082	102.71
748.207	125.36
748.332	160.17
748.458	153.45
748.583	186.47
748.708	238.03
748.833	294.76
748.958	377.33
749.083	526.14
749.208	687.46
749.333	917.07
749.458	1171.03
749.584	1317.84
749.709	1622.48
749.834	1860.6
749.959	2135.32
750.084	2610.2
750.209	3559.6
750.334	2996.58
750.459	1436.27
750.584	881.34
750.709	847.3
750.834	888.22
750.959	1000.15
751.084	1103.19
751.209	1358.46
751.334	1721.25
751.459	1007.22
751.584	302.22
751.709	102.67
751.834	49.86
751.959	42.2
752.084	24.48
752.209	31.96
752.334	21.37
752.459	24.23
752.584	14.1
752.709	-0.58
752.834	13.98
752.959	10.47
753.083	3
753.208	4.9
753.333	18.61
753.458	13.8
753.583	15.87
753.708	14.78
753.833	22.34
753.958	11.22
754.083	11.58
754.207	20.84
754.332	19.58
754.457	17.11
754.582	6.2
754.707	12.49
754.832	20.59
754.956	22.27
755.081	7.08
755.206	-3.28
755.331	6.88
755.456	8.51
755.581	3.81
755.705	14.75
755.83	8.71
755.955	16.64
756.08	2.31
756.204	5.71
756.329	-1.19
756.454	16.48
756.579	-1.58
756.703	-2.08
756.828	10.19
756.953	4.41
757.078	10.62
757.202	17.68
757.327	5.9
757.452	4.3
757.576	16.46
757.701	4.5
757.826	11.71
757.951	22.1
758.075	17.15
758.2	15.77
758.325	5.5
758.449	10.69
758.574	16
758.699	5
758.823	10.37
758.948	8.98
759.072	1.01
759.197	14.99
759.322	14.8
759.446	17.36
759.571	17.68
759.695	20.22
759.82	15.14
759.945	19.16
760.069	16.52
760.194	17.34
760.318	18.57
760.443	29.31
760.568	16.39
760.692	36.65
760.817	29.44
760.941	36.84
761.066	44.42
761.19	57.65
761.315	68.82
761.439	78.3
761.564	83.79
761.688	115.94
761.813	159.12
761.937	203.51
762.062	268.32
762.186	375.74
762.311	528.46
762.435	717.82
762.56	895.38
762.684	1069.85
762.809	1262.74
762.933	1383.7
763.057	1518.86
763.182	1846.84
763.306	2546.86
763.431	2607.65
763.555	1022.2
763.68	300.1
763.804	120.56
763.928	58.83
764.053	40.25
764.177	30.24
764.302	17.71
764.426	18.6
764.55	22.22
764.675	12.09
764.799	19.52
764.923	10.95
765.048	6.42
765.172	2.52
765.296	17.12
765.421	18.42
765.545	32.72
765.669	11.04
765.794	18.84
765.918	19.26
766.042	13.36
766.167	20.27
766.291	23.45
766.415	13.47
766.539	21.1
766.664	23.38
766.788	18.19
766.912	25.52
767.036	14.08
767.161	14.05
767.285	7.37
767.409	5.32
767.533	13.12
767.658	3.8
767.782	14.32
767.906	9.72
768.03	20.25
768.154	11.3
768.279	10.79
768.403	7.98
768.527	17.46
768.651	5.69
768.775	17.93
768.899	6.8
769.024	15.74
769.148	5.09
769.272	13.78
769.396	13.24
769.52	7.82
769.644	9.2
769.768	10.27
769.892	8.08
770.017	15.21
770.141	21.54
770.265	24.99
770.389	31.63
770.513	39.41
770.637	42.07
770.761	49.65
770.885	73.07
771.009	102.42
771.133	152.31
771.257	215.92
771.381	293.57
771.505	371.82
771.629	403.84
771.753	489.45
771.877	533.35
772.001	616.69
772.125	754.43
772.249	1084
772.373	762.23
772.497	246.16
772.621	78.12
772.745	33.47
772.869	26.47
772.993	10.93
773.117	13.96
773.241	12.6
773.365	11.16
773.489	8.37
773.613	11.76
773.737	5.53
773.861	18.04
773.985	11.27
774.109	2.91
774.233	-8.37
774.357	2.51
774.48	-2.28
774.604	-2.48
774.728	0.12
774.852	9.84
774.976	3.8
775.1	10.01
775.224	-7.36
775.347	3.31
775.471	-5.47
775.595	4.09
775.719	2.02
775.843	-3.07
775.967	-3.49
776.09	2.11
776.214	5
776.338	-2.48
776.462	4.29
776.586	14.61
776.709	2.91
776.833	9.91
776.957	3.6
777.081	9.7
777.204	-0.58
777.328	3.49
777.452	4.42
777.576	-1.97
777.699	0.31
777.823	4.7
777.947	14.95
778.071	-5.39
778.194	-3.08
778.318	-6.26
778.442	3.9
778.565	8.31
778.689	4.69
778.813	-9.26
778.936	-5.39
779.06	9.12
779.184	1.11
779.307	4.51
779.431	3.71
779.555	3.88
779.678	5.88
779.802	5.31
779.926	2.5
780.049	-6.51
780.173	5.78
780.296	0.71
780.42	-5.98
780.544	10.77
780.667	-3.89
780.791	9.83
780.914	0.81
781.038	8.2
781.162	5.71
781.285	5.92
781.409	6.3
781.532	2.71
781.656	1.31
781.779	1.21
781.903	2.11
782.026	0.02
782.15	2.6
782.273	2.41
782.397	-1.28
782.52	-1.99
782.644	-5.59
782.767	5.39
782.891	1.02
783.014	7.78
783.138	4.93
783.261	15.1
783.385	-5.65
783.508	0.71
783.632	-1.18
783.755	5.19
783.879	5
784.002	2.32
784.125	6.8
784.249	7.88
784.372	7.87
784.496	2.21
784.619	0.72
784.742	5.22
784.866	6.1
784.989	9.54
785.113	9.89
785.236	15.39
785.359	9.33
785.483	19.17
785.606	14.33
785.729	8.01
785.853	11.22
785.976	21.23
786.099	13.84
786.223	15.62
786.346	7.98
786.469	0.92
786.593	20.84
786.716	12.17
786.839	11.69
786.962	-2.77
787.086	3.5
787.209	4.01
787.332	33.15
787.455	-3.57
787.579	12.36
787.702	6.81
787.825	14.62
787.948	8.17
788.072	19.77
788.195	20.61
788.318	27.09
788.441	26.85
788.565	29.57
788.688	29.71
788.811	47.39
788.934	57.79
789.057	45.22
789.181	18.41
789.304	11.51
789.427	-5.68
789.55	7.49
789.673	4.59
789.796	-9.97
789.919	-6.26
790.043	5.11
790.166	8.28
790.289	5.71
790.412	16.41
790.535	11.78
790.658	11.23
790.781	5.19
790.904	12.99
791.027	6.7
791.15	8.24
791.274	18.87
791.397	14.5
791.52	13.46
791.643	-1.97
791.766	11.28
791.889	3.89
792.012	7.11
792.135	10.39
792.258	16.13
792.381	8.29
792.504	7.62
792.627	19.05
792.75	18.76
792.873	11.94
792.996	14.67
793.119	23.83
793.242	30.21
793.365	44.99
793.488	53.63
793.611	99.26
793.734	166.03
793.857	277.99
793.98	403.39
794.103	481.96
794.226	491.36
794.348	536.72
794.471	636.71
794.594	908.28
794.717	1001.41
794.84	431.44
794.963	116.27
795.086	38.67
795.209	21.76
795.332	21.01
795.454	18.88
795.577	7.01
795.7	-7.18
795.823	3.9
795.946	5.42
796.069	-1.88
796.192	13.41
796.314	12.62
796.437	10
796.56	6.9
796.683	3.1
796.806	-2.67
796.928	8.92
797.051	15.36
797.174	4.1
797.297	8.5
797.42	12.11
797.542	0.81
797.665	2.21
797.788	2.6
797.911	9.26
798.033	9.9
798.156	13.54
798.279	17.79
798.402	17.14
798.524	7.43
798.647	7.1
798.77	18.5
798.892	14.22
799.015	21.41
799.138	22.65
799.26	47
799.383	57.76
799.506	102.09
799.628	163.34
799.751	267.26
799.874	385.8
799.996	399.81
800.119	426.19
800.242	529.34
800.364	688.75
800.487	971.16
800.609	744.27
800.732	603.3
800.855	549.44
800.977	552.85
801.1	636.69
801.222	825.9
801.345	1071.85
801.468	572.53
801.59	159.33
801.713	60.12
801.835	28.25
801.958	25.85
802.08	23.39
802.203	10.26
802.325	8.79
802.448	10.9
802.571	12.06
802.693	15.9
802.816	17.9
802.938	12.46
803.061	7.93
803.183	15.61
803.305	2.3
803.428	11.31
803.55	9.52
803.673	12.72
803.795	19.23
803.918	24.89
804.04	22.75
804.163	12.35
804.285	20.23
804.408	18.16
804.53	18.16
804.652	26.27
804.775	24.87
804.897	44.97
805.02	29.39
805.142	43.9
805.264	42.93
805.387	24.62
805.509	7.18
805.631	2.82
805.754	16
805.876	5.61
805.999	18.29
806.121	10.76
806.243	3.19
806.366	20.66
806.488	8.42
806.61	-3.27
806.733	13.42
806.855	15.17
806.977	10.37
807.099	12.63
807.222	29.83
807.344	17.87
807.466	18.89
807.589	30.25
807.711	19.02
807.833	27.58
807.955	-2.38
808.078	29.52
808.2	21.82
808.322	27.17
808.444	38.29
808.566	38.39
808.689	48.79
808.811	126.6
808.933	67.24
809.055	81.18
809.177	123.23
809.3	190.54
809.422	349.65
809.544	675.51
809.666	1057.4
809.788	1112.41
809.911	1168.87
810.033	1451.78
810.155	2033.76
810.277	2032.06
810.399	1039.42
810.521	926.5
810.643	1810.72
810.765	3549.94
810.888	4444.97
811.01	4374.39
811.132	5014.79
811.254	6215.38
811.376	8526.77
811.498	4809.16
811.62	1266.66
811.742	419.31
811.864	203.35
811.986	136.56
812.108	95.39
812.23	63.5
812.352	63.28
812.474	41.48
812.596	22.84
812.718	24.2
812.84	13.87
812.962	18.9
813.084	16.94
813.206	19.43
813.328	18.3
813.45	15.27
813.572	21.26
813.694	9.32
813.816	3.11
813.938	1.21
814.06	11.28
814.182	6.12
814.304	21.12
814.426	2.7
814.548	3.5
814.67	9.77
814.792	20.4
814.914	10.37
815.036	10.01
815.157	14.59
815.279	-6.09
815.401	6.1
815.523	11.13
815.645	3.8
815.767	7.79
815.889	8.9
816.01	4.89
816.132	-1.08
816.254	9.72
816.376	6.9
816.498	5.61
816.62	4.3
816.741	6.79
816.863	11.86
816.985	7.57
817.107	22.23
817.229	18.63
817.35	13.17
817.472	117.53
817.594	24.81
817.716	28.68
817.838	18.32
817.959	6.62
818.081	5.09
818.203	-5.29
818.325	4.79
818.446	0.12
818.568	12.29
818.69	2.01
818.811	7.69
818.933	12.4
819.055	5.7
819.176	7.1
819.298	4.88
819.42	8.6
819.542	-2.87
819.663	-8.77
819.785	7.89
819.907	3.01
820.028	13.47
820.15	11.97
820.271	12.45
820.393	4.21
820.515	-1.89
820.636	9.56
820.758	12.03
820.88	-4.16
821.001	-0.78
821.123	7.71
821.244	8.99
821.366	-0.28
821.487	10.82
821.609	-3.48
821.731	10.99
821.852	0.42
821.974	1.42
822.095	6.87
822.217	-6.16
822.338	-1.98
822.46	4.2
822.581	-3.66
822.703	-3.97
822.824	-15.31
822.946	2.52
823.067	0.32
823.189	12.35
823.31	-1.78
823.432	5.19
823.553	1.91
823.675	0.11
823.796	5.5
823.918	-0.68
824.039	12.63
824.161	-3.46
824.282	6.6
824.404	11.88
824.525	5.31
824.646	7.85
824.768	8.09
824.889	17.61
825.011	22.52
825.132	25.7
825.253	26.59
825.375	26.94
825.496	38.9
825.617	74.11
825.739	283.33
825.86	521.48
825.982	557.55
826.103	593.12
826.224	830.11
826.346	695.8
826.467	206.21
826.588	57.38
826.71	29.31
826.831	10.94
826.952	12.22
827.073	9.51
827.195	7.41
827.316	17.94
827.437	4.39
827.559	4.5
827.68	-8.38
827.801	12.09
827.922	3.11
828.044	1.41
828.165	0.41
828.286	2
828.407	-1.18
828.529	-11.83
828.65	10.02
828.771	3.7
828.892	6.11
829.013	10.96
829.135	-10.69
829.256	0.11
829.377	7.78
829.498	2.61
829.619	-1.78
829.74	7.87
829.862	2.4
829.983	-1.58
830.104	10.08
830.225	5.81
830.346	9.28
830.467	2.11
830.588	-13.57
830.709	3.83
830.831	1.61
830.952	10.92
831.073	17.34
831.194	6.32
831.315	-7.94
831.436	-8.16
831.557	-1.79
831.678	2.2
831.799	7.3
831.92	6.47
832.041	1.31
832.162	2.21
832.283	-1.38
832.404	3.49
832.525	-6.9
832.646	2.01
832.767	15.03
832.888	1.6
833.009	14.68
833.13	1.21
833.251	-1.18
833.372	1.52
833.493	4.8
833.614	-1.78
833.735	8.26
833.856	9.34
833.977	-3.37
834.098	6.19
834.219	-2.38
834.34	4.99
834.461	4.51
834.582	-5.36
834.703	-1.97
834.824	-6.33
834.945	8.5
835.066	16.67
835.186	16.82
835.307	-0.78
835.428	-5.87
835.549	0.22
835.67	-1.98
835.791	0.51
835.912	0.51
836.032	-4.19
836.153	-4.75
836.274	-2.59
836.395	4.52
836.516	5.52
836.637	1.11
836.757	-6.23
836.878	3.01
836.999	-7.27
837.12	-2.97
837.241	-6.26
837.361	1.51
837.482	1.41
837.603	0.81
837.724	23.37
837.844	11.71
837.965	27.68
838.086	22.68
838.207	25.58
838.327	25.68
838.448	5.59
838.569	19.37
838.689	11.41
838.81	19.11
838.931	27.45
839.052	23.14
839.172	11.96
839.293	24.85
839.414	13.44
839.534	11.22
839.655	22.37
839.776	20.35
839.896	26.33
840.017	48.59
840.137	147.54
840.258	684.61
840.379	1437.22
840.499	1480.09
840.62	1862.17
840.741	980.9
840.861	236.06
840.982	92.38
841.102	58.06
841.223	28.83
841.344	34.34
841.464	42.28
841.585	55.34
841.705	104.7
841.826	398.78
841.946	1651.51
842.067	2724.79
842.187	2986.18
842.308	2972.94
842.428	1017.31
842.549	251.15
842.669	114.66
842.79	71.4
842.91	44.4
843.031	30.48
843.151	14.9
843.272	17.43
843.392	12.6
843.513	18.32
843.633	5.5
843.754	21.35
843.874	26.25
843.995	9.8
844.115	22.1
844.235	18.37
844.356	11.52
844.476	3.51
844.597	3.41
844.717	1.61
844.837	-1.08
844.958	-1.88
845.078	-6.06
845.199	-6.36
845.319	0.61
845.439	10.75
845.56	-1.29
845.68	-0.89
845.8	-41.28
845.921	7.69
846.041	-4.39
846.161	-3.39
846.282	2.79
846.402	0.61
846.522	5.01
846.643	-0.08
846.763	2.21
846.883	10.77
847.004	2.02
847.124	-15.86
847.244	0.41
847.364	6.69
847.485	2.11
847.605	2.91
847.725	-11.96
847.845	3.48
847.966	-1.79
848.086	-0.48
848.206	11.55
848.326	-7.07
848.447	14.58
848.567	-1.78
848.687	10.8
848.807	21.75
848.927	13.13
849.047	1.01
849.168	-2.78
849.288	0.91
849.408	-1.19
849.528	-9.08
849.648	3.4
849.768	-9.05
849.889	-0.08
850.009	-3.08
850.129	5.19
850.249	-10.45
850.369	14.36
850.489	0.02
850.609	4.81
850.729	0.61
850.849	6.5
850.97	10.7
851.09	3.39
851.21	15.24
851.33	16.49
851.45	17.88
851.57	96.98
851.69	499.06
851.81	1005.44
851.93	1144.71
852.05	574.08
852.17	145.43
852.29	40.84
852.41	20.65
852.53	12.69
852.65	19.75
852.77	15.58
852.89	-4.87
853.01	9.04
853.13	7.98
853.25	3.01
853.37	1.32
853.49	14.23
853.61	3.89
853.73	-2.68
853.85	6.7
853.97	0.21
854.09	1.31
854.209	-14.14
854.329	6.8
854.449	2.89
854.569	-0.98
854.689	0.81
854.809	3.5
854.929	24.04
855.049	-1.87
855.169	2.22
855.288	-38.96
855.408	0.31
855.528	-7.7
855.648	12.08
855.768	7.12
855.888	4.8
856.007	-0.48
856.127	5.93
856.247	-3.58
856.367	0.61
856.487	3.09
856.606	-0.78
856.726	0.32
856.846	-3.26
856.966	-10.06
857.086	-5.86
857.205	-4.98
857.325	-2.68
857.445	7.99
857.565	1.22
857.684	-3.38
857.804	8.87
857.924	-3.26
858.044	10.12
858.163	-3.08
858.283	-10.91
858.403	6.61
858.522	-8.96
858.642	0.22
858.762	6.3
858.881	5.98
859.001	3.41
859.121	8.6
859.24	5.39
859.36	-2.17
859.48	6.7
859.599	0.21
859.719	0.32
859.839	3.79
859.958	-1.58
860.078	7.62
860.197	35.75
860.317	87.75
860.437	50.87
860.556	15.71
860.676	5.5
860.795	-2.47
860.915	-2.49
861.034	0.82
861.154	-3.96
861.274	9.09
861.393	5.11
861.513	13.11
861.632	12
861.752	33.38
861.871	40.08
861.991	6.4
862.11	9.11
862.23	-2.07
862.349	-9.65
862.469	1.12
862.588	-2.48
862.708	2.21
862.827	1.81
862.947	-6.68
863.066	4.7
863.186	-13.91
863.305	-12.82
863.424	5.11
863.544	5.4
863.663	7.35
863.783	3.81
863.902	-7.38
864.022	3.1
864.141	-2.38
864.26	-2.78
864.38	-0.58
864.499	-1.58
864.619	6.26
864.738	6.49
864.857	5.81
864.977	0.41
865.096	1.31
865.215	-5.08
865.335	10.49
865.454	2.22
865.573	8.31
865.693	0.41
865.812	-7.5
865.931	-19.44
866.051	2.19
866.17	6.13
866.289	3.71
866.408	66.46
866.528	275.01
866.647	186.07
866.766	44.76
866.886	15.05
867.005	11.58
867.124	12.43
867.243	2.11
867.363	-7.33
867.482	9.91
867.601	22.92
867.72	8.12
867.839	5.96
867.959	-7.93
868.078	-0.18
868.197	-4.27
868.316	-0.28
868.435	-9.61
868.555	11.41
868.674	12.79
868.793	7.05
868.912	1.21
869.031	2.32
869.15	-2.08
869.27	2
869.389	5.48
869.508	-2.28
869.627	0.41
869.746	3.59
869.865	7.96
869.984	-0.18
870.103	7.81
870.222	-6.66
870.341	4.32
870.461	-6.78
870.58	3.01
870.699	7.94
870.818	-2.76
870.937	7.4
871.056	7.91
871.175	10.84
871.294	16.01
871.413	8
871.532	2.72
871.651	10.6
871.77	2.89
871.889	5.19
872.008	5.52
872.127	-1.28
872.246	3.19
872.365	-5.58
872.484	4.11
872.603	3.2
872.722	-1.28
872.841	8.39
872.96	5.82
873.079	5.72
873.198	2.71
873.316	2.52
873.435	17.87
873.554	9.77
873.673	8.08
873.792	2.92
873.911	-1.58
874.03	10.13
874.149	8.81
874.268	0.32
874.387	-4.19
874.505	-0.08
874.624	-5.37
874.743	7.51
874.862	5.02
874.981	2.51
875.1	-6.36
875.218	3.61
875.337	-6.4
875.456	11.67
875.575	0.41
875.694	-0.58
875.813	15.89
875.931	84.44
876.05	38.21
876.169	9.48
876.288	19.78
876.406	-7.24
876.525	-12.7
876.644	8.01
876.763	4.51
876.881	10.72
877	8.91
877.119	-4.6
877.238	-3.87
877.356	-0.98
877.475	6.56
877.594	0.61
877.712	11.38
877.831	4.38
877.95	-0.08
878.068	-1.08
878.187	8.01
878.306	3.3
878.424	3.49
878.543	-2.28
878.662	1.51
878.78	-7.64
878.899	-0.48
879.018	-3.28
879.136	-1.18
879.255	6.36
879.374	5.28
879.492	-1.58
879.611	16.31
879.729	30.33
879.848	7.96
879.966	4.91
880.085	3.11
880.204	5.39
880.322	3.22
880.441	-0.69
880.559	4.19
880.678	8.67
880.796	3.47
880.915	-2.69
881.033	2.31
881.152	-7.75
881.27	-5.95
881.389	1.52
881.507	-6.48
881.626	7.75
881.744	6.18
881.863	5.41
881.981	12.61
882.1	-4.35
882.218	-2.37
882.337	2.81
882.455	-7.27
882.574	-0.08
882.692	-4.65
882.81	-8.19
882.929	-0.28
883.047	-5.47
883.166	-8.44
883.284	1.71
883.403	-1.68
883.521	7.26
883.639	9.21
883.758	11.31
883.876	3.22
883.994	8.66
884.113	9.82
884.231	10.92
884.349	6.72
884.468	10.25
884.586	-5.63
884.705	21.82
884.823	35.1
884.941	12.56
885.059	9.21
885.178	12.15
885.296	-2.27
885.414	-2.36
885.533	4.51
885.651	-1.98
885.769	5.31
885.887	2.3
886.006	9.48
886.124	-2.58
886.242	1.31
886.36	2.91
886.479	-3.46
886.597	4.41
886.715	-4.29
886.833	-0.58
886.952	4.29
887.07	0.41
887.188	14.91
887.306	0.41
887.424	0.61
887.543	5.91
887.661	-4.28
887.779	3.19
887.897	3.58
888.015	-6.57
888.133	4.7
888.251	5.49
888.37	0.91
888.488	-3.59
888.606	-2.89
888.724	2.8
888.842	5.47
888.96	-0.38
889.078	-3.78
889.196	-5.04
889.314	9.15
889.433	7.41
889.551	-5.78
889.669	0.91
889.787	11.99
889.905	1.01
890.023	5.31
890.141	-5.06
890.259	1.41
890.377	2.01
890.495	0.02
890.613	2.89
890.731	-1.67
890.849	5.91
890.967	4.41
891.085	4.89
891.203	8.14
891.321	-0.48
891.439	19.3
891.557	6.74
891.675	-1.77
891.793	1.31
891.911	4.7
892.029	6.69
892.147	8.19
892.265	-4.68
892.383	-4.89
892.5	-0.38
892.618	-6.24
892.736	3.81
892.854	4.71
892.972	1.3
893.09	8.82
893.208	7.1
893.326	2.42
893.444	-0.78
893.561	1.62
893.679	-3.38
893.797	10.41
893.915	5.88
894.033	-9.27
894.151	-4.69
894.268	-6.87
894.386	0.21
894.504	-21.29
894.622	-3.68
894.74	3.31
894.857	10.16
894.975	17.04
895.093	-3.48
895.211	-3.69
895.329	-4.16
895.446	-13.7
895.564	-9.16
895.682	1.01
895.8	-1.58
895.917	7.26
896.035	-1.99
896.153	12.15
896.271	4.98
896.388	-1.18
896.506	2.72
896.624	7.02
896.741	8.39
896.859	1.1
896.977	2.72
897.094	-2.68
897.212	-3.57
897.33	-11.92
897.447	-6.27
897.565	-1.08
897.683	-5.17
897.8	-3.66
897.918	2.82
898.036	1.52
898.153	-6.46
898.271	5.32
898.388	8.71
898.506	-9.09
898.624	2.12
898.741	-1.18
898.859	0.71
898.976	3.3
899.094	-6.18
899.211	1.11
899.329	-3.29
899.447	-0.28
899.564	-13.83
899.682	-7.77
899.799	2.92
899.917	4
900.034	-7.27
900.152	4.19
900.269	-9.15
900.387	-0.48
900.504	2.89
900.622	-6.35
900.739	3.61
900.857	-0.58
900.974	1.41
901.092	-1.08
901.209	18.46
901.326	9.98
901.444	-7.64
901.561	-7.74
901.679	4.51
901.796	-1.28
901.914	-4.85
902.031	12.38
902.148	8.92
902.266	-0.98
902.383	-2.96
902.501	3.21
902.618	4.61
902.735	-7.09
902.853	-3.78
902.97	-16.93
903.087	-10.38
903.205	-5.39
903.322	4.87
903.439	-6.76
903.557	-2.78
903.674	3.72
903.791	6.07
903.909	4.6
904.026	2.22
904.143	-0.38
904.261	0.91
904.378	-7.63
904.495	9.21
904.612	-6.79
904.73	1.21
904.847	2.4
904.964	-2.48
905.081	-6.57
905.199	15.84
905.316	0.41
905.433	4.22
905.55	-2.88
905.668	-2.08
905.785	7.97
905.902	-6.57
906.019	4.51
906.136	2.99
906.254	4.7
906.371	8.21
906.488	28.05
906.605	10.76
906.722	5.18
906.839	-5.18
906.957	7.92
907.074	30.31
907.191	6.85
907.308	31.66
907.425	17.2
907.542	14.49
907.659	3.19
907.776	0.71
907.893	0.02
908.011	5.67
908.128	3.1
908.245	4.62
908.362	1.41
908.479	0.71
908.596	-4.47
908.713	3.11
908.83	-2.98
908.947	0.02
909.064	13.12
909.181	1.72
909.298	1.32
909.415	-4.46
909.532	12.13
909.649	-4.88
909.766	-1.28
909.883	0.81
910	4.88
910.117	-6.99
910.234	-0.38
910.351	1.9
910.468	5.21
910.585	4.11
910.702	0.22
910.819	1.9
910.936	-0.08
911.053	19.07
911.17	13.15
911.287	22.51
911.403	7.48
911.52	16.61
911.637	25.14
911.754	65.67
911.871	205.3
911.988	1252.39
912.105	2768.38
912.222	1188.63
912.338	618.33
912.455	431.02
912.572	328.08
912.689	221.82
912.806	117.14
912.923	62.67
913.039	39.74
913.156	22.26
913.273	18.47
913.39	20.08
913.507	17.48
913.623	-1.78
913.74	14.2
913.857	4.32
913.974	8.5
914.091	-14.89
914.207	2
914.324	-2.28
914.441	-1.49
914.558	2.4
914.674	6.7
914.791	7.32
914.908	6.31
915.024	3.2
915.141	1.01
915.258	9.13
915.375	5.01
915.491	3.9
915.608	1.31
915.725	1.52
915.841	2.62
915.958	3.58
916.075	6.65
916.191	3.82
916.308	-5.87
916.425	1.9
916.541	2.62
916.658	12.67
916.774	-2.98
916.891	9
917.008	-1.77
917.124	-2.18
917.241	-2.79
917.357	6.5
917.474	0.61
917.591	2.82
917.707	-9.07
917.824	4.27
917.94	-1.78
918.057	7.71
918.173	1.11
918.29	0.12
918.406	7.76
918.523	-3.97
918.639	4.51
918.756	-1.28
918.872	3.4
918.989	15.24
919.105	9.88
919.222	55.57
919.338	44.19
919.455	25.51
919.571	17.71
919.688	11.08
919.804	-40.9
919.921	12.39
920.037	5
920.154	21.19
920.27	-0.78
920.386	5.59
920.503	-0.28
920.619	-2.58
920.736	-1.08
920.852	-2.99
920.968	4.32
921.085	5.76
921.201	5.77
921.318	5.02
921.434	10.9
921.55	8.99
921.667	4.29
921.783	10.21
921.899	14.58
922.016	48.62
922.132	318.34
922.248	660.24
922.365	317.84
922.481	173.68
922.597	114.78
922.714	78.79
922.83	73.96
922.946	49.36
923.062	35.91
923.179	14.14
923.295	9.21
923.411	-0.18
923.527	6.38
923.644	-8.08
923.76	-0.48
923.876	-1.58
923.992	10.78
924.109	16.2
924.225	2.62
924.341	11.97
924.457	4.01
924.573	0.82
924.69	1.21
924.806	-2.67
924.922	-5.56
925.038	-10.88
925.154	2.71
925.27	-6.59
925.387	6.07
925.503	-8.18
925.619	5.72
925.735	-3.77
925.851	1.41
925.967	6.12
926.083	-2.49
926.199	-0.18
926.316	6.28
926.432	1.52
926.548	2.01
926.664	-4.07
926.78	0.81
926.896	-8.48
927.012	1.12
927.128	-4.07
927.244	5.39
927.36	2.51
927.476	2.01
927.592	-9.47
927.708	5.18
927.824	1.92
927.94	-7.67
928.056	-2.17
928.172	-0.38
928.288	-2.89
928.404	-1.58
928.52	-0.28
928.636	11.78
928.752	4.81
928.868	17.82
928.984	16.53
929.1	6.99
929.216	10.32
929.332	6.6
929.448	-4.95
929.564	15.1
929.68	-1.18
929.796	5.61
929.911	-0.08
930.027	-0.98
930.143	32.42
930.259	-3.58
930.375	-2.68
930.491	0.71
930.607	-5.79
930.723	6.61
930.838	6.77
930.954	3.21
931.07	6.21
931.186	-2.08
931.302	6.28
931.418	2.1
931.533	1.71
931.649	-2.18
931.765	-5.36
931.881	-1.98
931.997	5.21
932.112	-35.09
932.228	-7.34
932.344	-23.48
932.46	-2.88
932.576	-9.98
932.691	-7.94
932.807	10.89
932.923	-1.58
933.038	7.3
933.154	1.81
933.27	-2.18
933.386	0.21
933.501	-11.5
933.617	1.52
933.733	18.29
933.848	-8.7
933.964	7.59
934.08	7.25
934.195	13.3
934.311	0.42
934.427	3.8
934.542	4.1
934.658	6.57
934.774	2.81
934.889	10.7
935.005	15.97
935.121	34.27
935.236	38.72
935.352	20.11
935.467	11.49
935.583	9.19
935.699	7.5
935.814	4.42
935.93	4.68
936.045	5.69
936.161	12.38
936.276	-3.29
936.392	-1.77
936.507	2.6
936.623	-0.08
936.739	-16.29
936.854	0.71
936.97	-9.63
937.085	10.87
937.201	0.71
937.316	-2.58
937.432	9.18
937.547	0.81
937.663	-4.68
937.778	-2.16
937.893	-6.95
938.009	-0.18
938.124	8.7
938.24	1.91
938.355	1.8
938.471	-3.08
938.586	-11.83
938.702	4.19
938.817	-4.28
938.932	13.98
939.048	8.59
939.163	3.6
939.279	4.08
939.394	-8.59
939.509	-2.97
939.625	-7.77
939.74	-1.69
939.855	-9.97
939.971	-0.18
940.086	6.87
940.201	3.5
940.317	4.3
940.432	6.7
940.547	-3.98
940.663	9.26
940.778	-4.49
940.893	-2.08
941.009	0.81
941.124	-6.85
941.239	7.3
941.355	1.71
941.47	-1.97
941.585	3.39
941.7	0.42
941.816	6.52
941.931	-2.86
942.046	-10.44
942.161	8.42
942.276	4.5
942.392	-5.05
942.507	1.01
942.622	2.01
942.737	-0.48
942.852	8.28
942.968	0.31
943.083	3.12
943.198	-3.17
943.313	-4.26
943.428	7.84
943.544	-1.58
943.659	-1.58
943.774	-5.89
943.889	-1.49
944.004	-7.38
944.119	-0.38
944.234	5.47
944.349	-8.57
944.465	10.3
944.58	-2.58
944.695	2.99
944.81	0.41
944.925	-3.48
945.04	-2.98
945.155	-5.26
945.27	-3.45
945.385	0.52
945.5	11.63
945.615	5.29
945.73	10.8
945.845	7.11
945.96	7.42
946.075	6.69
946.19	-3.47
946.305	15.46
946.42	11.49
946.535	-0.08
946.65	9.55
946.765	-10.69
946.88	0.32
946.995	11.76
947.11	9.6
947.225	7.69
947.34	-3.98
947.455	1.11
947.57	-3.19
947.685	0.61
947.8	5.69
947.915	-1.08
948.03	-3.76
948.144	-9.67
948.259	5.4
948.374	-3.76
948.489	0.31
948.604	-2.18
948.719	8.5
948.834	2.61
948.949	-2.07
949.063	-12.48
949.178	-7.98
949.293	-8.92
949.408	3.19
949.523	2.41
949.638	-2.08
949.752	10.19
949.867	-6.34
949.982	-11.69
950.097	6.1
950.212	-2.08
950.326	-2.47
950.441	-1.18
950.556	-6.59
950.671	3
950.785	0.61
950.9	-4.37
951.015	-0.69
951.13	11.61
951.244	-0.88
951.359	6.7
951.474	-0.88
951.588	0.91
951.703	4.99
951.818	4.6
951.932	-5.18
952.047	-1.87
952.162	1.9
952.277	0.81
952.391	30.15
952.506	-8.56
952.62	2.3
952.735	-5.87
952.85	-1.48
952.964	4.6
953.079	4.91
953.194	-3.38
953.308	3.21
953.423	-9.84
953.537	2.81
953.652	4.21
953.767	0.72
953.881	-3.68
953.996	5.99
954.11	-4.68
954.225	4.02
954.339	3.81
954.454	4.67
954.569	2.32
954.683	1.01
954.798	0.41
954.912	0.31
955.027	-0.18
955.141	-3.98
955.256	-8.31
955.37	-11.93
955.485	-10.75
955.599	-3.48
955.714	7.21
955.828	4.79
955.943	-1.39
956.057	2.92
956.171	-8.96
956.286	1.41
956.4	4.41
956.515	-13.08
956.629	-14.14
956.744	9.72
956.858	2.81
956.972	5.51
957.087	2.4
957.201	-3.58
957.316	-15.37
957.43	-7.06
957.544	0.11
957.659	5.31
957.773	-4.58
957.887	2.51
958.002	0.02
958.116	11.08
958.23	10.99
958.345	1.61
958.459	0.81
958.573	0.21
958.688	-7.68
958.802	-2.17
958.916	-2.27
959.031	-0.38
959.145	-0.38
959.259	-3.49
959.373	1.51
959.488	2.41
959.602	-15.36
959.716	-1.48
959.831	-2.77
959.945	3.3
960.059	-3.78
960.173	-4.86
960.287	-1.18
960.402	-1.28
960.516	2.21
960.63	0.91
960.744	9.81
960.858	-6.85
960.973	4.81
961.087	-8.77
961.201	10.57
961.315	-1.89
961.429	1.61
961.543	2.51
961.658	1.11
961.772	3.11
961.886	-3.77
962	-9.97
962.114	-0.18
962.228	-3.17
962.342	-0.18
962.456	-0.78
962.571	1.11
962.685	3.19
962.799	-2.58
962.913	8.02
963.027	-1.78
963.141	-2.79
963.255	-1.78
963.369	0.21
963.483	1.91
963.597	9.65
963.711	-3.48
963.825	-0.38
963.939	5.88
964.053	6.47
964.167	2.11
964.281	-0.88
964.395	17.86
964.509	5.91
964.623	-0.68
964.737	5.5
964.851	-2.58
964.965	2.61
965.079	13.18
965.193	17.1
965.307	49.9
965.421	203.3
965.535	354.27
965.649	211.51
965.762	152.27
965.876	108.82
965.99	80.77
966.104	84.12
966.218	61.03
966.332	57.02
966.446	47.73
966.56	42.11
966.674	27.48
966.787	29.28
966.901	21.24
967.015	8.11
967.129	3.89
967.243	11
967.357	9.59
967.47	0.91
967.584	6.5
967.698	-2.28
967.812	0.31
967.926	9.91
968.039	-0.88
968.153	2.1
968.267	-1.88
968.381	-4.27
968.494	6.26
968.608	-0.78
968.722	8.1
968.836	-1.88
968.949	12.98
969.063	-8.06
969.177	4.11
969.291	6.2
969.404	7.43
969.518	-3.75
969.632	3.42
969.745	-5.37
969.859	3.01
969.973	10.37
970.086	2.11
970.2	7.59
970.314	4
970.427	-7.14
970.541	10.01
970.655	7.32
970.768	9.8
970.882	-4.77
970.996	-2.78
971.109	-2.08
971.223	2.71
971.336	-3.27
971.45	1.91
971.564	-6.96
971.677	6.4
971.791	-1.78
971.904	10.12
972.018	-2.48
972.131	-6.77
972.245	-7.15
972.358	2.41
972.472	-6.37
972.586	10
972.699	13.36
972.813	2.51
972.926	-1.38
973.04	-11
973.153	3.2
973.267	-0.28
973.38	3.62
973.493	7.77
973.607	3.51
973.72	-1.19
973.834	-82.82
973.947	7.48
974.061	1.81
974.174	-9.18
974.288	-0.88
974.401	9.11
974.514	8.69
974.628	2.61
974.741	-4.47
974.855	-1.38
974.968	-14.89
975.081	-0.98
975.195	3.11
975.308	-15.73
975.422	-7.44
975.535	1.71
975.648	0.02
975.762	-1.27
975.875	0.51
975.988	-2.97
976.102	7.5
976.215	2.3
976.328	-6.73
976.442	-6.67
976.555	-10.59
976.668	4.08
976.781	4.69
976.895	1.11
977.008	6.2
977.121	8.4
977.235	-31.19
977.348	13.91
977.461	0.62
977.574	1.91
977.688	0.71
977.801	-10.65
977.914	8.19
978.027	7.6
978.14	36.96
978.254	28.69
978.367	19.42
978.48	24.66
978.593	20.39
978.706	12.47
978.82	6
978.933	3
979.046	9.64
979.159	-0.18
979.272	-9.96
979.385	1.01
979.498	1.11
979.612	1.12
979.725	6.39
979.838	12.6
979.951	3.6
980.064	3.81
980.177	-0.28
980.29	8.56
980.403	1.01
980.516	-1.98
980.629	-3.79
980.743	17.44
980.856	-6.88
980.969	-9.56
981.082	1.01
981.195	0.91
981.308	1.8
981.421	3.01
981.534	-0.98
981.647	3.61
981.76	4.59
981.873	-1.78
981.986	2.61
982.099	6.5
982.212	11.37
982.325	-2.18
982.438	-13.57
982.551	-4.58
982.664	0.91
982.777	-5.18
982.889	0.22
983.002	7.49
983.115	9.71
983.228	-2.08
983.341	3.51
983.454	2.3
983.567	6.92
983.68	-3.97
983.793	-2.48
983.906	4.11
984.019	4.62
984.131	0.71
984.244	-4.97
984.357	-4.38
984.47	10.82
984.583	-14.49
984.696	6.01
984.808	-1.18
984.921	-9.14
985.034	6.41
985.147	0.52
985.26	2.6
985.373	1.51
985.485	7.59
985.598	1.41
985.711	-13.5
985.824	4.8
985.936	4.02
986.049	0.41
986.162	2.31
986.275	-19.65
986.387	-9.76
986.5	7.41
986.613	-3.27
986.726	4.87
986.838	9.58
986.951	-5.68
987.064	6.89
987.176	-7.46
987.289	4.31
987.402	9.5
987.514	5.19
987.627	3.4
987.74	-1.78
987.852	-1.38
987.965	6.1
988.078	-6.65
988.19	-0.58
988.303	9.4
988.416	-5.07
988.528	9.49
988.641	-0.89
988.753	-0.28
988.866	2.01
988.979	1.11
989.091	-3.37
989.204	1.11
989.316	-12.11
989.429	-4.27
989.541	1.81
989.654	-4.89
989.767	-0.38
989.879	0.22
989.992	-1.38
990.104	-3.99
990.217	-0.18
990.329	-3.58
990.442	-5.5
990.554	4.41
990.667	2.11
990.779	-3.57
990.892	2.51
991.004	3.7
991.117	-0.88
991.229	-3.18
991.342	-1.18
991.454	-3.57
991.566	4.41
991.679	7.01
991.791	4.1
991.904	4.91
992.016	4.78
992.129	-35.08
992.241	-4.68
992.353	-0.08
992.466	0.91
992.578	6.18
992.691	4.61
992.803	1.71
992.915	3.71
993.028	-5.97
993.14	-1.98
993.252	3.21
993.365	-3.28
993.477	4.51
993.589	-0.58
993.702	1.72
993.814	-0.38
993.926	1.41
994.039	-0.08
994.151	-2.97
994.263	3.79
994.375	1.01
994.488	-3.09
994.6	-3.69
994.712	-1.97
994.824	-1.28
994.937	3.41
995.049	7.31
995.161	4.99
995.273	3.99
995.386	4.71
995.498	5.8
995.61	-11.13
995.722	-0.28
995.834	-1.28
995.947	-2.88
996.059	-1.18
996.171	-10.28
996.283	6.01
996.395	-3.28
996.507	-5.78
996.62	4.89
996.732	7.1
996.844	8.49
996.956	-2.87
997.068	-2.47
997.18	0.71
997.292	-12.16
997.404	-5.16
997.517	-12.21
997.629	-13.22
997.741	11.58
997.853	-7.37
997.965	8.87
998.077	-15.38
998.189	-9.47
998.301	4.99
998.413	-4.17
998.525	-1.08
998.637	-6.07
998.749	4.68
998.861	5.99
998.973	-1.29
999.085	13.59
999.197	3.2
999.309	4.4
999.421	1.21
999.533	-6.98
999.645	0.91
999.757	-2.58
999.869	-13.22
999.981	0.71
1000.093	2.32
1000.205	6.28
1000.317	-3.69
1000.429	-11.86
1000.541	2.31
1000.653	-0.98
1000.765	4.81
1000.876	-5.97
1000.988	-1.88
1001.1	-7.07
1001.212	4.4
1001.324	0.71
1001.436	2.71
1001.548	7.48
1001.66	6.01
1001.771	4.42
1001.883	-1.08
1001.995	-7.37
1002.107	-2.89
1002.219	-6.97
1002.331	4.69
1002.442	3.82
1002.554	6.11
1002.666	3.5
1002.778	-4.37
1002.89	8.48
1003.001	-5.98
1003.113	-9.1
1003.225	-7.88
1003.337	-2.57
1003.448	-8.37
1003.56	-0.28
1003.672	5.7
1003.784	-5.06
1003.895	1.81
1004.007	2.42
1004.119	5.79
1004.231	1.11
1004.342	-3.78
1004.454	-3.37
1004.566	2.1
1004.677	-7.16
1004.789	-0.98
1004.901	6.6
1005.012	2.99
1005.124	2
1005.236	9.11
1005.347	-1.38
1005.459	-12.35
1005.571	-8.2
1005.682	7.7
1005.794	-1.98
1005.905	15.4
1006.017	9.87
1006.129	-9.27
1006.24	4.02
1006.352	5.62
1006.463	-5.56
1006.575	-6.07
1006.686	1.22
1006.798	-7.94
1006.91	-6.08
1007.021	-6.37
1007.133	-5.57
1007.244	-6.36
1007.356	7.31
1007.467	4.01
1007.579	-10.77
1007.69	-13.79
1007.802	-6.86
1007.913	-1.08
1008.025	-3.78
1008.136	13.07
1008.248	0.31
1008.359	3.51
1008.471	1.91
1008.582	-6.65
1008.693	13.56
1008.805	17
1008.916	2.91
1009.028	-1.58
1009.139	1.41
1009.251	-3.08
1009.362	1.21
1009.473	-5.57
1009.585	5.61
1009.696	0.92
1009.808	4.41
1009.919	5.5
1010.03	9.01
1010.142	-8.35
1010.253	0.71
1010.364	-0.68
1010.476	2.1
1010.587	-2.58
1010.698	-10.28
1010.81	-5.85
1010.921	-2.78
1011.032	5.11
1011.144	6.49
1011.255	-3.88
1011.366	6.3
1011.478	-3.77
1011.589	-6.28
1011.7	5.6
1011.811	6.5
1011.923	1.91
1012.034	-2.08
1012.145	10.18
1012.256	-3.08
1012.368	3.1
1012.479	4.12
1012.59	4
1012.701	9.18
1012.812	-4.07
1012.924	-6.26
1013.035	-3.76
1013.146	-6.86
1013.257	4.01
1013.368	-1.28
1013.48	-4.57
1013.591	5.53
1013.702	4.61
1013.813	-4.67
1013.924	1.11
1014.035	-0.18
1014.146	-1.58
1014.257	1.71
1014.369	-2.38
1014.48	0.51
1014.591	-0.08
1014.702	5.11
1014.813	-5.86
1014.924	-2.37
1015.035	-4.28
1015.146	-1.68
1015.257	-9.01
1015.368	3.3
1015.479	-9.97
1015.59	5.9
1015.701	-11.75
1015.812	-0.58
1015.924	1.61
1016.035	-0.69
1016.146	0.82
1016.257	-12.16
1016.368	5.71
1016.479	-5.47
1016.59	-2.08
1016.7	-6.57
1016.811	-1.68
1016.922	1.31
1017.033	3.71
1017.144	-0.28
1017.255	5.92
1017.366	5.5
1017.477	3.2
1017.588	6.1
1017.699	-4.37
1017.81	4.6
1017.921	4.4
1018.032	-4.98
1018.143	5.01
1018.253	10.66
1018.364	-2.47
1018.475	2.92
1018.586	-1.59
1018.697	-1.38
1018.808	-1.68
1018.919	-0.38
1019.029	-1.88
1019.14	-6.38
1019.251	-7.26
1019.362	-0.48
1019.473	3.62
1019.584	-4.48
1019.694	15.65
1019.805	-2.17
1019.916	-12.5
1020.027	13
1020.137	0.91
1020.248	-5.24
1020.359	6.6
1020.47	-9.65
1020.581	-7.36
1020.691	-7.06
1020.802	-4.36
1020.913	-9.56
1021.023	-1.98
1021.134	0.61
1021.245	1.01
1021.356	3.41
1021.466	-12.66
1021.577	5.09
1021.688	4.6
1021.798	6.6
1021.909	-15.21
1022.02	5.98
1022.13	0.12
1022.241	4.6
1022.352	0.92
1022.462	0.61
1022.573	3.41
1022.683	1.01
1022.794	5.28
1022.905	-4.97
1023.015	4.6
1023.126	-13.37
1023.236	5.71
1023.347	-8.83
1023.458	5.7
1023.568	2.71
1023.679	3.7
1023.789	-1.58
1023.9	-6.07
1024.01	12.46
1024.121	-6.06
1024.231	10.28
1024.342	2.61
1024.453	1.61
1024.563	3.8
1024.674	0.91
1024.784	-13.97
1024.895	6.4
1025.005	-6.65
1025.116	5.51
1025.226	-6.46
1025.336	13.72
1025.447	-3.48
1025.557	3.32
1025.668	-4.87
1025.778	-7.19
1025.889	6.31
1025.999	2.4
1026.11	2.51
1026.22	-8.96
1026.33	6.77
1026.441	-2.27
1026.551	6.2
1026.662	-1.29
1026.772	0.91
1026.882	-9.23
1026.993	-1.18
1027.103	-8.77
1027.213	3.51
1027.324	6.9
1027.434	-7.48
1027.544	6.51
1027.655	-5.27
1027.765	-8.89
1027.875	5.19
1027.986	-5.38
1028.096	2.8
1028.206	9.58
1028.317	-5.29
1028.427	1.51
1028.537	-3.46
1028.647	-10.64
1028.758	-250.09
1028.868	0.71
1028.978	-1.68
1029.088	-3.27
1029.199	-1.19
1029.309	-0.08
1029.419	2
1029.529	10.52
1029.639	2.32
1029.75	-3.29
1029.86	-1.08
1029.97	2.1
1030.08	-13.76
1030.19	-2.48
1030.301	0.71
1030.411	-4.96
1030.521	7.6
1030.631	8.19
1030.741	1.91
1030.851	5.3
1030.961	-2.28
1031.072	-0.38
1031.182	3.4
1031.292	-0.58
1031.402	4.9
1031.512	0.31
1031.622	3.71
1031.732	4.41
1031.842	5.81
1031.952	-2.09
1032.062	-4.47
1032.172	2.31
1032.282	-5.76
1032.393	-4.19
1032.503	0.61
1032.613	6.28
1032.723	10.19
1032.833	-2.37
1032.943	12.61
1033.053	3.9
1033.163	-8.4
1033.273	8.19
1033.383	-2.28
1033.493	4.79
1033.603	-1.88
1033.713	-3.48
1033.823	-9.17
1033.932	-0.48
1034.042	-1.18
1034.152	0.31
1034.262	3.2
1034.372	8.49
1034.482	-6.27
1034.592	5.59
1034.702	-1.78
1034.812	-8.05
1034.922	6.21
1035.032	2.61
1035.141	-2.67
1035.251	6.19
1035.361	2.32
1035.471	3.81
1035.581	9.32
1035.691	2.01
1035.801	-5.77
1035.91	1.61
1036.02	-5.86
1036.13	-0.08
1036.24	-2.48
1036.35	-14.96
1036.46	-11.35
1036.569	0.21
1036.679	1.71
1036.789	3.91
1036.899	-12.79
1037.008	-8.28
1037.118	-5.28
1037.228	-8.16
1037.338	-6.18
1037.447	10.66
1037.557	-1.48
1037.667	-11.7
1037.777	1.6
1037.886	0.51
1037.996	-18.49
1038.106	-1.08
1038.215	2.61
1038.325	1.41
1038.435	0.91
1038.544	2.12
1038.654	-0.88
1038.764	-5.67
