Data from 191228_Ar05mT_300W_ALA10_8000ms_Subt2_02-17-57-813.txt Node
Date: Sun Dec 29 02:17:57 KST 2019
User: L102
Spectrometer: HR4D2517
Trigger mode: 4
Integration Time (sec): 8.000000E0
Scans to average: 1
Electric dark correction enabled: true
Nonlinearity correction enabled: true
Boxcar width: 0
XAxis mode: Wavelengths
Number of Pixels in Spectrum: 3648
>>>>>Begin Spectral Data<<<<<
597.141	-2.96
597.272	-2.96
597.404	-2.96
597.536	-0.95
597.668	5.92
597.8	2.71
597.932	5.87
598.064	0.01
598.196	-0.49
598.328	4.2
598.46	-3.48
598.591	0.7
598.723	3.51
598.855	7.91
598.987	3.51
599.119	-8.96
599.251	-9.7
599.383	-5.8
599.514	10.04
599.646	0.61
599.778	19.63
599.91	16.35
600.042	8.55
600.173	6.41
600.305	2.6
600.437	-0.49
600.569	-0.79
600.701	18.82
600.832	11.72
600.964	-0.89
601.096	21.08
601.228	10.24
601.359	10.81
601.491	-3.79
601.623	17.38
601.755	12.26
601.886	14.75
602.018	21.28
602.15	36.89
602.281	30.19
602.413	34.04
602.545	36.37
602.677	51.92
602.808	68.07
602.94	102.33
603.072	96.59
603.203	42.23
603.335	24.16
603.467	4.01
603.598	21.51
603.73	14.82
603.862	30.53
603.993	59.56
604.125	48.57
604.256	39.61
604.388	16.06
604.52	4.51
604.651	7.2
604.783	10.41
604.915	0.61
605.046	7.7
605.178	9.12
605.309	14.99
605.441	23.88
605.572	12.8
605.704	25.41
605.836	18.64
605.967	5.09
606.099	-0.59
606.23	-3.98
606.362	7.4
606.493	18.67
606.625	0.31
606.756	3.71
606.888	-5.71
607.019	-5.4
607.151	-3.1
607.282	14.1
607.414	14.97
607.545	-3.98
607.677	6.2
607.808	13.35
607.94	0.11
608.071	2.29
608.203	8.52
608.334	2.01
608.466	17.18
608.597	14.51
608.728	9.79
608.86	5.1
608.991	3.31
609.123	10.01
609.254	12.59
609.386	6.3
609.517	15.72
609.648	19.51
609.78	16.11
609.911	41.09
610.043	8.16
610.174	29.47
610.305	21.56
610.437	25.88
610.568	8.06
610.699	13.53
610.831	3.92
610.962	5.41
611.093	10.89
611.225	-1.68
611.356	15.32
611.487	-2.3
611.619	9.25
611.75	3.21
611.881	5.02
612.013	17.17
612.144	6.18
612.275	2.59
612.406	9.5
612.538	8.53
612.669	15.36
612.8	-1.19
612.931	1.81
613.063	15.33
613.194	-5.59
613.325	0.41
613.456	16.61
613.588	8.63
613.719	-1.09
613.85	14.18
613.981	13.19
614.112	24.95
614.244	27.81
614.375	32.39
614.506	16.8
614.637	3.6
614.768	17.02
614.9	12.48
615.031	7.82
615.162	9.31
615.293	21.62
615.424	18.92
615.555	7.42
615.686	3.61
615.818	18.58
615.949	8.97
616.08	12.74
616.211	4.11
616.342	17.01
616.473	-3.89
616.604	11.64
616.735	9.6
616.866	36.71
616.998	33.67
617.129	30.67
617.26	14.51
617.391	8.47
617.522	2.41
617.653	21.42
617.784	7.01
617.915	3.89
618.046	-1.09
618.177	1.51
618.308	2.91
618.439	-4.67
618.57	7.16
618.701	9.23
618.832	-5.5
618.963	-3.69
619.094	3
619.225	-4.69
619.356	0.41
619.487	-2.28
619.618	-1.39
619.749	13.2
619.88	5.9
620.011	2.6
620.142	6.09
620.273	5.4
620.404	2.41
620.535	7.68
620.665	14.39
620.796	10.8
620.927	23.13
621.058	17.88
621.189	19.64
621.32	26.85
621.451	11.92
621.582	16
621.713	15.31
621.844	-0.69
621.974	10.13
622.105	14.38
622.236	6.77
622.367	5.92
622.498	15.53
622.629	-3.79
622.759	-11.08
622.89	2.01
623.021	-2.79
623.152	-3.69
623.283	4.2
623.414	-6.1
623.544	0.11
623.675	-6.45
623.806	2.1
623.937	-1.09
624.067	-8
624.198	6.08
624.329	3.2
624.46	14.78
624.59	9.6
624.721	16.74
624.852	2.9
624.983	5
625.113	3.01
625.244	0.11
625.375	4.81
625.506	2.01
625.636	1.3
625.767	-3.48
625.898	13.24
626.028	5.5
626.159	3.01
626.29	2.79
626.42	14.89
626.551	-4.41
626.682	4.21
626.812	-9.22
626.943	11.98
627.074	-6.08
627.204	12.11
627.335	15.67
627.466	1.59
627.596	7.62
627.727	0.11
627.857	-3.18
627.988	12.2
628.119	15.11
628.249	8.9
628.38	18.1
628.51	2.6
628.641	8.89
628.772	10.63
628.902	15.45
629.033	10
629.163	4.61
629.294	14.61
629.424	32.5
629.555	40.25
629.685	24.22
629.816	3.41
629.946	8.89
630.077	6.02
630.207	8.92
630.338	21.14
630.468	21.82
630.599	26.53
630.729	19.94
630.86	12.93
630.99	15.1
631.121	0.81
631.251	2.81
631.382	-9.11
631.512	6.89
631.643	4.38
631.773	5.51
631.904	0.31
632.034	-9.45
632.164	1.1
632.295	-3.49
632.425	5.91
632.556	-1.28
632.686	-0.99
632.816	3.01
632.947	8.52
633.077	0.7
633.208	6.9
633.338	4.01
633.468	-0.49
633.599	3.28
633.729	2.11
633.859	-0.69
633.99	-2
634.12	-3.68
634.25	-0.59
634.381	-2.09
634.511	7.31
634.641	7.3
634.772	-1.39
634.902	6.21
635.032	8.7
635.163	-9.3
635.293	3.2
635.423	0.91
635.553	0.51
635.684	5.18
635.814	-0.19
635.944	8.21
636.074	7
636.205	2.31
636.335	12.51
636.465	15.55
636.595	12.61
636.726	26.57
636.856	8.41
636.986	-12.7
637.116	7.02
637.246	4.4
637.377	-1.09
637.507	5
637.637	4.7
637.767	3.3
637.897	1.7
638.027	14.9
638.158	12.52
638.288	31.42
638.418	15.76
638.548	-7.31
638.678	10.39
638.808	2.1
638.938	-5.26
639.069	3.9
639.199	-5.7
639.329	-8.48
639.459	1.41
639.589	6.01
639.719	3.51
639.849	-7.58
639.979	0.31
640.109	4.01
640.239	6.22
640.369	0.9
640.5	14.73
640.63	-1.19
640.76	17.41
640.89	24.71
641.02	22.22
641.15	21.4
641.28	37.8
641.41	49.03
641.54	36.99
641.67	14.44
641.8	6.41
641.93	6.69
642.06	6.7
642.19	-6.28
642.32	1.01
642.45	-1.58
642.58	13.57
642.71	4.1
642.84	9.51
642.97	5.91
643.1	4.39
643.229	4
643.359	-4.6
643.489	-3.27
643.619	4.48
643.749	-0.19
643.879	7.01
644.009	-1.59
644.139	11.92
644.269	4.31
644.399	20.69
644.529	6.18
644.658	7.98
644.788	-4.68
644.918	15.2
645.048	9.3
645.178	-1.39
645.308	5.79
645.438	7.1
645.567	11.04
645.697	5.97
645.827	5.5
645.957	-5.18
646.087	9.28
646.216	8.99
646.346	14.2
646.476	19.92
646.606	11.17
646.736	3.31
646.865	3.7
646.995	14.29
647.125	6.57
647.255	-4.86
647.384	9.69
647.514	4.81
647.644	2.99
647.774	2.01
647.903	14.08
648.033	-0.29
648.163	12.18
648.293	-13.94
648.422	0.61
648.552	-8.19
648.682	-0.39
648.811	-2.98
648.941	0.91
649.071	-3.59
649.2	6.36
649.33	-0.99
649.46	-5
649.589	1.01
649.719	0.51
649.849	9.06
649.978	2.61
650.108	-3.09
650.238	3.69
650.367	-4.16
650.497	6.61
650.626	13.11
650.756	7.16
650.886	1.41
651.015	9.39
651.145	5.89
651.274	-0.19
651.404	7.18
651.534	11.7
651.663	16.01
651.793	15.94
651.922	8.45
652.052	-11.18
652.181	-2.09
652.311	12.43
652.44	12.01
652.57	4.8
652.699	-1.89
652.829	7.29
652.958	-0.49
653.088	15.05
653.217	14.23
653.347	13.21
653.476	20.5
653.606	4.41
653.735	12.86
653.865	7.46
653.994	8.68
654.124	-1.59
654.253	-3.59
654.383	12.59
654.512	4.89
654.642	10.92
654.771	5.22
654.9	2.7
655.03	3.19
655.159	-1.79
655.289	12.69
655.418	7.96
655.547	1.4
655.677	8.08
655.806	1.5
655.936	14.6
656.065	12.67
656.194	5.3
656.324	8.13
656.453	7.8
656.582	1.2
656.712	2.11
656.841	4.01
656.97	3.4
657.1	5.87
657.229	2.91
657.358	-0.69
657.488	10.67
657.617	4
657.746	-1.29
657.876	-0.29
658.005	-6.8
658.134	-8.47
658.263	0.61
658.393	0.61
658.522	1.1
658.651	12.7
658.78	-2.89
658.91	-14.77
659.039	8
659.168	18.82
659.297	15.12
659.427	8.82
659.556	3.39
659.685	14.41
659.814	10.02
659.943	10.3
660.073	22.79
660.202	23.99
660.331	34.26
660.46	16.1
660.589	17.17
660.719	-2.38
660.848	12.64
660.977	5
661.106	-0.69
661.235	8.57
661.364	3.41
661.493	8
661.623	8.5
661.752	5.28
661.881	4.09
662.01	6.99
662.139	1.4
662.268	-3.59
662.397	1.21
662.526	4.7
662.655	2.6
662.784	1
662.913	-9.56
663.043	2.3
663.172	6.56
663.301	0.9
663.43	-4.68
663.559	1.01
663.688	0.41
663.817	-4.88
663.946	13.22
664.075	-12.53
664.204	0.6
664.333	-4.29
664.462	-9.16
664.591	-0.59
664.72	-3.27
664.849	0.51
664.978	14.28
665.107	9.6
665.236	15.65
665.365	4.39
665.494	11.81
665.623	21.06
665.751	15.02
665.88	22
666.009	15.62
666.138	14.4
666.267	21.26
666.396	14.9
666.525	8.3
666.654	2.71
666.783	3.5
666.912	9.57
667.041	2.1
667.169	9.09
667.298	3.99
667.427	14.92
667.556	17.34
667.685	15.91
667.814	1.11
667.943	7.49
668.071	1.81
668.2	15.14
668.329	17.06
668.458	7.37
668.587	-2.59
668.716	3.31
668.844	1.4
668.973	2.29
669.102	11.71
669.231	9.59
669.359	16.57
669.488	17.27
669.617	32.87
669.746	14.23
669.875	6.09
670.003	5.71
670.132	-1.79
670.261	5.21
670.389	4.61
670.518	0.51
670.647	1.31
670.776	2.3
670.904	0.61
671.033	9.27
671.162	14.51
671.29	-3.99
671.419	12.79
671.548	8.62
671.676	3.01
671.805	18.92
671.934	9.65
672.062	7.58
672.191	11
672.32	11.39
672.448	2.1
672.577	4.38
672.706	9.42
672.834	4.51
672.963	13.62
673.092	7.28
673.22	20.13
673.349	-2.79
673.477	13.26
673.606	14.88
673.735	29.12
673.863	13.85
673.992	25.54
674.12	34.15
674.249	25.16
674.377	42.26
674.506	63
674.634	77.97
674.763	96.34
674.892	120.56
675.02	164.73
675.149	190.59
675.277	130.58
675.406	55.87
675.534	23.56
675.663	19.78
675.791	1.6
675.92	7.41
676.048	15.97
676.176	28.13
676.305	23.65
676.433	25.39
676.562	31.29
676.69	14.65
676.819	9.69
676.947	3.21
677.076	-9.92
677.204	-0.19
677.332	11.78
677.461	5.51
677.589	1.5
677.718	9.38
677.846	7.02
677.975	5.49
678.103	-17.96
678.231	-3.38
678.36	7.8
678.488	-4.29
678.616	4.7
678.745	9.89
678.873	5
679.001	-0.39
679.13	6.32
679.258	7.18
679.386	-2.48
679.515	-4.59
679.643	13.79
679.771	12.16
679.9	-0.19
680.028	2.41
680.156	2.9
680.285	2.3
680.413	4.02
680.541	1.11
680.669	7.67
680.798	-0.49
680.926	8.91
681.054	5.8
681.182	1.5
681.311	19
681.439	11.77
681.567	-0.09
681.695	9.6
681.824	12.93
681.952	-13.52
682.08	1.61
682.208	3.51
682.336	5.01
682.465	0.31
682.593	5.2
682.721	6.11
682.849	20.1
682.977	9.91
683.105	2.6
683.234	4.6
683.362	7.07
683.49	-3.39
683.618	-4.89
683.746	3.29
683.874	-3.19
684.002	4.01
684.131	2.11
684.259	10.17
684.387	2.21
684.515	10.42
684.643	-8.58
684.771	3.5
684.899	-8.58
685.027	0.81
685.155	18.07
685.283	9.45
685.411	21.47
685.539	1.7
685.667	17.59
685.796	12.48
685.924	30.11
686.052	21.28
686.18	42.51
686.308	40.34
686.436	68.92
686.564	71.92
686.692	107.91
686.82	127.15
686.948	165.69
687.076	137.76
687.204	59.14
687.332	26.66
687.459	20.19
687.587	23.34
687.715	20.89
687.843	19.89
687.971	27.03
688.099	14.79
688.227	25.74
688.355	34.6
688.483	33.73
688.611	40.41
688.739	31.72
688.867	15.07
688.995	0.5
689.122	2.51
689.25	2.91
689.378	0.21
689.506	-2.68
689.634	-0.69
689.762	-1.59
689.89	4.49
690.018	6.68
690.145	2.4
690.273	5
690.401	8.47
690.529	-8.69
690.657	15.38
690.784	-0.19
690.912	13.45
691.04	-2.97
691.168	9
691.296	0.01
691.423	3.29
691.551	9.08
691.679	3.41
691.807	6.19
691.935	8.31
692.062	13.24
692.19	16.7
692.318	20.48
692.446	25.72
692.573	20.12
692.701	21.75
692.829	23.62
692.956	31.05
693.084	35.17
693.212	42.29
693.34	41.58
693.467	60.36
693.595	72.77
693.723	65.75
693.85	29.79
693.978	25.79
694.106	12.87
694.233	13.68
694.361	15.25
694.489	22.09
694.616	35.91
694.744	54.72
694.871	48.61
694.999	57.17
695.127	57.02
695.254	61.65
695.382	74.25
695.509	90.36
695.637	112.63
695.765	154.82
695.892	181.01
696.02	217.4
696.147	258.41
696.275	304.69
696.403	378.55
696.53	283.67
696.658	108.31
696.785	22.99
696.913	6.7
697.04	20.04
697.168	15.65
697.295	0.01
697.423	12.78
697.55	7.07
697.678	-0.49
697.805	0.61
697.933	7.7
698.06	-2.18
698.188	0.11
698.315	4.92
698.443	6.91
698.57	12.29
698.698	18.69
698.825	14.69
698.952	6.31
699.08	12.24
699.207	8.22
699.335	1.31
699.462	3.21
699.59	7.72
699.717	-4.77
699.844	7.9
699.972	0.41
700.099	-1.58
700.227	-3.66
700.354	7.6
700.481	0.61
700.609	12.13
700.736	10.99
700.863	0.71
700.991	6.8
701.118	5.98
701.245	3.49
701.373	3.32
701.5	13.75
701.627	15.17
701.755	7.58
701.882	16.73
702.009	23.61
702.137	30.67
702.264	50.09
702.391	56.97
702.518	70.18
702.646	77.89
702.773	86.38
702.9	101.42
703.027	82.67
703.155	26.6
703.282	18.36
703.409	9.69
703.536	8.81
703.664	3.1
703.791	4.2
703.918	8.09
704.045	13.43
704.172	18.01
704.3	20.8
704.427	18.91
704.554	27.38
704.681	10.51
704.808	22.93
704.936	2.61
705.063	28.05
705.19	50.64
705.317	46.19
705.444	51.34
705.571	69.57
705.698	97.68
705.826	102.72
705.953	150.1
706.08	182.82
706.207	200.24
706.334	266.62
706.461	323.01
706.588	402.32
706.715	338.22
706.842	174.78
706.969	59.28
707.096	14.32
707.224	16.95
707.351	19.53
707.478	7.37
707.605	2.4
707.732	11.39
707.859	13.18
707.986	9.73
708.113	3.31
708.24	0.51
708.367	9.09
708.494	1.8
708.621	13.21
708.748	5.89
708.875	4.08
709.002	-0.59
709.129	-2.69
709.256	0.9
709.383	3.59
709.51	-4.59
709.637	16.66
709.764	24.13
709.89	5.29
710.017	23.09
710.144	15.93
710.271	3.69
710.398	8.45
710.525	16.04
710.652	30.34
710.779	13.65
710.906	12.05
711.033	9.59
711.16	-1.49
711.286	2.1
711.413	8.95
711.54	11.76
711.667	16.11
711.794	11.91
711.921	9.95
712.048	15.31
712.174	20.11
712.301	26.73
712.428	34.96
712.555	20.24
712.682	2.81
712.808	1.01
712.935	12.38
713.062	4.11
713.189	4.5
713.316	0.9
713.442	15.87
713.569	10.7
713.696	9.41
713.823	19.21
713.949	23.53
714.076	36.58
714.203	46.16
714.33	34.26
714.456	43.3
714.583	56.49
714.71	37.73
714.837	27.43
714.963	11.57
715.09	21.17
715.217	16.49
715.343	21.03
715.47	8.07
715.597	21.31
715.723	15.34
715.85	17.25
715.977	7.59
716.103	13.27
716.23	16.58
716.357	10.28
716.483	8.48
716.61	7.61
716.736	3
716.863	9.27
716.99	-1.08
717.116	10.7
717.243	5.1
717.369	21.1
717.496	11.86
717.623	13.61
717.749	-1.59
717.876	-11.97
718.002	3.79
718.129	12.32
718.255	9.3
718.382	5.18
718.509	4.88
718.635	12.37
718.762	-4.08
718.888	5.27
719.015	14.97
719.141	3
719.268	10.5
719.394	12.39
719.521	12.4
719.647	15.83
719.774	24.58
719.9	30.25
720.027	42.24
720.153	47.73
720.279	49.59
720.406	68.41
720.532	74.27
720.659	72.23
720.785	35.18
720.912	4.59
721.038	-2.39
721.165	-3.79
721.291	13.71
721.417	11.97
721.544	3.5
721.67	3.11
721.797	-1.79
721.923	5.39
722.049	13.61
722.176	3.01
722.302	13.19
722.428	10.08
722.555	-0.69
722.681	10.39
722.807	17.79
722.934	7.21
723.06	17.98
723.186	12.56
723.313	12.92
723.439	-6.61
723.565	7.31
723.692	14.01
723.818	-1.29
723.944	-1.89
724.07	4.67
724.197	-8.6
724.323	6.9
724.449	5.98
724.576	5.6
724.702	6.67
724.828	4.39
724.954	0.21
725.081	6.27
725.207	13.51
725.333	14.4
725.459	12.98
725.585	15.68
725.712	18.1
725.838	22.59
725.964	37.72
726.09	44.6
726.216	61.78
726.343	82.15
726.469	75.34
726.595	66.05
726.721	63.18
726.847	100.61
726.973	102.39
727.099	115.51
727.226	113.77
727.352	52.62
727.478	6.99
727.604	6.18
727.73	14.72
727.856	8.41
727.982	21.22
728.108	11.58
728.234	4.92
728.361	24.86
728.487	7.2
728.613	14.79
728.739	9.8
728.865	-0.99
728.991	3.89
729.117	11.9
729.243	2.61
729.369	0.01
729.495	6.27
729.621	16.24
729.747	5.48
729.873	6.21
729.999	23.12
730.125	14.86
730.251	27.18
730.377	28.35
730.503	36.07
730.629	27.99
730.755	49.67
730.881	54.65
731.007	71.25
731.133	61.26
731.259	40.8
731.385	39.03
731.511	49.27
731.637	16.18
731.763	9.88
731.888	3.8
732.014	8.08
732.14	9
732.266	15.24
732.392	4.69
732.518	9.08
732.644	5.91
732.77	12.09
732.896	18.37
733.021	2.7
733.147	15.77
733.273	12.49
733.399	15.89
733.525	17.84
733.651	15.28
733.777	22.53
733.902	25.33
734.028	36.52
734.154	35.26
734.28	45.7
734.406	54.55
734.531	62.37
734.657	73.39
734.783	79.58
734.909	97.28
735.034	117.65
735.16	145.43
735.286	103.95
735.412	58.21
735.537	40.63
735.663	51.99
735.789	52.02
735.915	71.19
736.04	103.14
736.166	104.6
736.292	146.12
736.418	158.18
736.543	204.38
736.669	218.12
736.795	252.17
736.92	306.48
737.046	416.37
737.172	383.18
737.297	275.64
737.423	271.82
737.549	301.94
737.674	353.6
737.8	400.15
737.926	469.87
738.051	536.37
738.177	709.36
738.302	744.41
738.428	365.19
738.554	114.88
738.679	49.23
738.805	42.02
738.93	39.71
739.056	48.93
739.182	40.95
739.307	13.39
739.433	29.72
739.558	7.87
739.684	12.49
739.809	11.99
739.935	24.2
740.06	14.34
740.186	24.07
740.311	18.17
740.437	11.69
740.562	22.27
740.688	21.37
740.813	27.09
740.939	33.1
741.064	35.82
741.19	41.65
741.315	32.72
741.441	20.1
741.566	20.79
741.692	14.82
741.817	39.1
741.943	27.36
742.068	38.52
742.194	40.4
742.319	52.86
742.444	52.05
742.57	38.08
742.695	36.67
742.821	30.72
742.946	25.23
743.071	44.11
743.197	49.34
743.322	45.01
743.448	48.77
743.573	38.39
743.698	23.91
743.824	4.4
743.949	15.88
744.074	13.37
744.2	0.61
744.325	20.81
744.45	19.97
744.576	3.11
744.701	16.59
744.826	9.37
744.952	5.51
745.077	18.67
745.202	11.67
745.327	10.89
745.453	23.75
745.578	27.86
745.703	20.24
745.828	13.97
745.954	19.77
746.079	19.69
746.204	14.81
746.329	18.85
746.455	19.22
746.58	34.39
746.705	30.11
746.83	23.6
746.956	30.11
747.081	40.47
747.206	41.66
747.331	43.21
747.456	61.2
747.582	58.36
747.707	68.63
747.832	72.77
747.957	77.27
748.082	92.23
748.207	121.05
748.332	137.62
748.458	136.01
748.583	172.76
748.708	216.2
748.833	261.63
748.958	337.36
749.083	468.02
749.208	619.72
749.333	819.34
749.458	1041.1
749.584	1179.22
749.709	1429.62
749.834	1645.98
749.959	1881.65
750.084	2297.55
750.209	3172.47
750.334	2638.97
750.459	1273.48
750.584	779.09
750.709	782.27
750.834	784.17
750.959	890.57
751.084	963.71
751.209	1204.75
751.334	1515.85
751.459	891.41
751.584	269.68
751.709	93.1
751.834	44.46
751.959	34.61
752.084	31.14
752.209	33.05
752.334	3.6
752.459	20.82
752.584	17.39
752.709	8.4
752.834	12.77
752.959	1.9
753.083	9.07
753.208	5.79
753.333	12.51
753.458	4.4
753.583	20.05
753.708	15.77
753.833	24.13
753.958	-7.6
754.083	19.86
754.207	13.06
754.332	25.26
754.457	14.2
754.582	18.67
754.707	6.39
754.832	1.61
754.956	13.88
755.081	5.18
755.206	7.99
755.331	8.16
755.456	11.5
755.581	7.19
755.705	21.22
755.83	-1.69
755.955	10.76
756.08	8.28
756.204	15.7
756.329	5.51
756.454	10.48
756.579	5.7
756.703	5.7
756.828	7.49
756.953	19.78
757.078	12.71
757.202	21.27
757.327	3
757.452	3
757.576	11.27
757.701	3.8
757.826	10.4
757.951	13.7
758.075	11.57
758.2	17.06
758.325	-2.29
758.449	10.18
758.574	23.09
758.699	14.98
758.823	15.94
758.948	12.65
759.072	2.19
759.197	16.28
759.322	8.7
759.446	7.78
759.571	16.38
759.695	18.11
759.82	15.53
759.945	13.96
760.069	12.41
760.194	19.63
760.318	26.45
760.443	22.81
760.568	15.89
760.692	39.04
760.817	19.82
760.941	33.23
761.066	46.1
761.19	40.96
761.315	65.91
761.439	60.85
761.564	81.88
761.688	99.51
761.813	131.36
761.937	183.62
762.062	245.82
762.186	325.78
762.311	462.56
762.435	622.59
762.56	777.67
762.684	940.8
762.809	1113.15
762.933	1223.48
763.057	1335.27
763.182	1617.61
763.306	2261.39
763.431	2284.76
763.555	910
763.68	259.18
763.804	106.56
763.928	61.72
764.053	35.46
764.177	28.83
764.302	25.71
764.426	14.3
764.55	23.21
764.675	11.78
764.799	14.44
764.923	14.82
765.048	20.03
765.172	17.82
765.296	19.61
765.421	15.71
765.545	35.41
765.669	13.91
765.794	14.25
765.918	15.96
766.042	7.67
766.167	16.47
766.291	16.96
766.415	14.95
766.539	21.89
766.664	19.08
766.788	20.48
766.912	26.61
767.036	14.67
767.161	14.05
767.285	3.99
767.409	8.92
767.533	5.81
767.658	9.98
767.782	5.47
767.906	13.12
768.03	12.07
768.154	16.28
768.279	20.06
768.403	6.08
768.527	6.38
768.651	2.8
768.775	13.92
768.899	8.68
769.024	7.77
769.148	6.47
769.272	11.87
769.396	7.96
769.52	9.71
769.644	1.81
769.768	18.22
769.892	13.55
770.017	21.6
770.141	16.05
770.265	21.98
770.389	34.61
770.513	46.19
770.637	33.67
770.761	38.66
770.885	57.91
771.009	94.63
771.133	136.07
771.257	189.06
771.381	258.38
771.505	319.82
771.629	360.88
771.753	436.07
771.877	472.54
772.001	533.8
772.125	668.33
772.249	958.36
772.373	656.68
772.497	221.17
772.621	73.43
772.745	35.67
772.869	29.06
772.993	15.53
773.117	15.45
773.241	10.39
773.365	12.35
773.489	11.25
773.613	18.92
773.737	15.55
773.861	11.52
773.985	0.51
774.109	19
774.233	0.11
774.357	9.09
774.48	-5.77
774.604	0.71
774.728	5.6
774.852	4.92
774.976	0.41
775.1	3.71
775.224	-10.16
775.347	5.4
775.471	-6.97
775.595	3.39
775.719	2.41
775.843	3.19
775.967	7.71
776.09	4.09
776.214	2.9
776.338	-0.79
776.462	1.9
776.586	12.61
776.709	7.88
776.833	14.19
776.957	-1.69
777.081	7.89
777.204	3.71
777.328	5.27
777.452	-0.29
777.576	1.5
777.699	7.88
777.823	-4.08
777.947	10.66
778.071	-0.39
778.194	11.1
778.318	-8.46
778.442	1.2
778.565	12.7
778.689	5.68
778.813	-2.98
778.936	-0.19
779.06	11.02
779.184	-2.08
779.307	1.91
779.431	2
779.555	4.27
779.678	13.44
779.802	9.3
779.926	2.69
780.049	-4.21
780.173	12.33
780.296	-4.18
780.42	10.8
780.544	7.67
780.667	0.81
780.791	2.21
780.914	2.69
781.038	12.09
781.162	9.8
781.285	0.11
781.409	6.79
781.532	-1.99
781.656	7
781.779	7.19
781.903	0.61
782.026	-1.69
782.15	2.3
782.273	5.5
782.397	-9.49
782.52	-2.79
782.644	0.61
782.767	4.79
782.891	-3.9
783.014	5.08
783.138	8.12
783.261	13.99
783.385	3.88
783.508	8.56
783.632	-1.79
783.755	5.18
783.879	6.09
784.002	0.41
784.125	7.89
784.249	12.05
784.372	1.9
784.496	8.18
784.619	6.51
784.742	-1.89
784.866	5.7
784.989	13.11
785.113	17.37
785.236	11.19
785.359	26.14
785.483	21.06
785.606	8.81
785.729	-0.69
785.853	3.71
785.976	21.23
786.099	13.04
786.223	11.41
786.346	10.96
786.469	7.23
786.593	20.93
786.716	11.57
786.839	11.48
786.962	-2.08
787.086	1
787.209	6.09
787.332	21.47
787.455	0.31
787.579	6.48
787.702	3.11
787.825	15.11
787.948	10.44
788.072	24.95
788.195	24.41
788.318	29.77
788.441	30.32
788.565	32.86
788.688	32.51
788.811	40.31
788.934	55.18
789.057	47.8
789.181	8.41
789.304	5.2
789.427	3.2
789.55	-0.39
789.673	15.43
789.796	-5.29
789.919	-3.58
790.043	8.09
790.166	-0.49
790.289	11.89
790.412	10.81
790.535	7.69
790.658	15.43
790.781	18.64
790.904	18.98
791.027	12.58
791.15	6.32
791.274	9.88
791.397	14.7
791.52	5.19
791.643	0.31
791.766	10.67
791.889	7.86
792.012	10.3
792.135	9.09
792.258	18.12
792.381	3.3
792.504	9.21
792.627	21.34
792.75	19.25
792.873	14.72
792.996	19.45
793.119	20.92
793.242	29.41
793.365	33.83
793.488	51.73
793.611	81.75
793.734	136.55
793.857	238.4
793.98	356.39
794.103	424.77
794.226	440.6
794.348	466.68
794.471	566.74
794.594	794.49
794.717	887.12
794.84	364.68
794.963	106.99
795.086	35.06
795.209	23.74
795.332	29.21
795.454	14.88
795.577	8.9
795.7	-0.29
795.823	9.47
795.946	13.42
796.069	-1.59
796.192	10.4
796.314	12.71
796.437	6
796.56	6.1
796.683	3.49
796.806	10.34
796.928	10.92
797.051	9.27
797.174	13.55
797.297	7.7
797.42	6.81
797.542	13.45
797.665	1.6
797.788	12.06
797.911	6.37
798.033	14.68
798.156	13.64
798.279	18.28
798.402	7.87
798.524	-13.22
798.647	6.49
798.77	24.19
798.892	14.91
799.015	16.11
799.138	17.95
799.26	41.1
799.383	55.46
799.506	80.02
799.628	152.63
799.751	237.2
799.874	333.2
799.996	343.47
800.119	384.08
800.242	456.13
800.364	599.94
800.487	842.81
800.609	637.83
800.732	531.25
800.855	487.08
800.977	489.08
801.1	561.81
801.222	715.33
801.345	943.3
801.468	498.07
801.59	137.29
801.713	49.22
801.835	20.75
801.958	-22.92
802.08	24.58
802.203	4.29
802.325	13.07
802.448	1.9
802.571	11.16
802.693	9.94
802.816	1.5
802.938	13.65
803.061	6.62
803.183	8.95
803.305	1.7
803.428	14.7
803.55	26.12
803.673	19.07
803.795	13.45
803.918	20.11
804.04	15.29
804.163	9.95
804.285	23.11
804.408	21.35
804.53	14.86
804.652	16.78
804.775	21.47
804.897	43.67
805.02	25.18
805.142	42.5
805.264	33.84
805.387	26.8
805.509	2.5
805.631	4.72
805.754	7.4
805.876	8.5
805.999	13.09
806.121	11.95
806.243	10.24
806.366	15.67
806.488	15.91
806.61	-0.79
806.733	7.81
806.855	0.81
806.977	13.65
807.099	13.92
807.222	29.22
807.344	16.96
807.466	16.9
807.589	26.16
807.711	20.71
807.833	26.07
807.955	-7.99
808.078	29.72
808.2	25.41
808.322	25.57
808.444	35.79
808.566	38.09
808.689	45.09
808.811	113.87
808.933	64.13
809.055	74.99
809.177	110.21
809.3	171.45
809.422	306.94
809.544	609
809.666	920.94
809.788	971.82
809.911	1045.24
810.033	1252.12
810.155	1781.03
810.277	1785.5
810.399	900.13
810.521	793.44
810.643	1561.63
810.765	3064.03
810.888	3836.77
811.01	3744.37
811.132	4266.48
811.254	5414.39
811.376	7371.01
811.498	4116.77
811.62	1095.03
811.742	353.91
811.864	183.77
811.986	107.12
812.108	91.17
812.23	64.99
812.352	50.19
812.474	36.09
812.596	27.92
812.718	27.4
812.84	12.36
812.962	4.7
813.084	17.33
813.206	24.3
813.328	16.2
813.45	17.76
813.572	12.33
813.694	16.21
813.816	6.39
813.938	1.31
814.06	8.58
814.182	10.72
814.304	16.03
814.426	0.01
814.548	4.29
814.67	17.23
814.792	11.2
814.914	9.77
815.036	7.31
815.157	6.7
815.279	3.01
815.401	6.59
815.523	3.21
815.645	15.44
815.767	-3.78
815.889	20.28
816.01	-0.69
816.132	0.5
816.254	4.11
816.376	18.57
816.498	11.59
816.62	0.51
816.741	3.09
816.863	14.34
816.985	10.25
817.107	22.02
817.229	17.13
817.35	17.55
817.472	17.73
817.594	14.3
817.716	25.59
817.838	15.71
817.959	-3.49
818.081	-0.39
818.203	-3.89
818.325	-5.77
818.446	12.82
818.568	6.3
818.69	0.51
818.811	8.68
818.933	9.1
819.055	1.9
819.176	9.88
819.298	4.67
819.42	-0.29
819.542	-8.35
819.663	9.39
819.785	10.68
819.907	6.89
820.028	1.4
820.15	11.96
820.271	4.92
820.393	12.49
820.515	6.31
820.636	0.9
820.758	6.86
820.88	-3.07
821.001	-3.09
821.123	0.21
821.244	18.75
821.366	4.48
821.487	7.91
821.609	-8.89
821.731	11.88
821.852	7
821.974	-3.89
822.095	1.2
822.217	-5.07
822.338	0.81
822.46	3.6
822.581	-5.06
822.703	5.38
822.824	-12.81
822.946	-0.19
823.067	-6.99
823.189	9.96
823.31	5.1
823.432	5.98
823.553	0.91
823.675	6.88
823.796	-3.38
823.918	12.93
824.039	13.93
824.161	1
824.282	5.8
824.404	6.39
824.525	3.51
824.646	13.01
824.768	14.56
824.889	17.2
825.011	26
825.132	22.99
825.253	16.19
825.375	19.93
825.496	34.39
825.617	66.19
825.739	247.18
825.86	463.18
825.982	485.5
826.103	521.06
826.224	709.03
826.346	603.79
826.467	182.82
826.588	51.27
826.71	25.81
826.831	8.15
826.952	15.01
827.073	7.4
827.195	10.81
827.316	13.75
827.437	8.56
827.559	-0.99
827.68	0.61
827.801	-0.99
827.922	14.17
828.044	2.09
828.165	-3.27
828.286	6.26
828.407	1.79
828.529	0.6
828.65	10.82
828.771	5.59
828.892	1.91
829.013	4.88
829.135	3.61
829.256	-2.38
829.377	12.15
829.498	-3.58
829.619	3.51
829.74	7.56
829.862	0.11
829.983	1.2
830.104	1.5
830.225	8.61
830.346	8.47
830.467	6.88
830.588	-11.78
830.709	-3.1
830.831	-2.88
830.952	10.31
831.073	9.32
831.194	3.81
831.315	-3.57
831.436	-7.97
831.557	-3.1
831.678	1.7
831.799	6.09
831.92	-3.27
832.041	-1.59
832.162	2.5
832.283	-2.78
832.404	5.07
832.525	-13.82
832.646	3.7
832.767	9.31
832.888	7.64
833.009	17.97
833.13	9.58
833.251	8.37
833.372	2.31
833.493	4.09
833.614	-4.38
833.735	6.17
833.856	8.93
833.977	5.69
834.098	15.35
834.219	9.28
834.34	0.41
834.461	7.9
834.582	5.28
834.703	-2.78
834.824	-1.48
834.945	6.5
835.066	21.15
835.186	17.22
835.307	0.8
835.428	5.39
835.549	-1.39
835.67	2.5
835.791	7.69
835.912	11.88
836.032	2.21
836.153	-2.97
836.274	6.31
836.395	5.32
836.516	0.51
836.637	5.69
836.757	-1.38
836.878	1.21
836.999	0.81
837.12	-3.57
837.241	-5.07
837.361	2.11
837.482	4.31
837.603	9.95
837.724	-18.76
837.844	7.11
837.965	22.28
838.086	20.29
838.207	28.17
838.327	20.57
838.448	4.59
838.569	13.08
838.689	12.49
838.81	12.8
838.931	19.96
839.052	27.1
839.172	18.73
839.293	9.72
839.414	2.01
839.534	25.22
839.655	11.38
839.776	23.04
839.896	25.32
840.017	41.53
840.137	132.75
840.258	595.1
840.379	1284.21
840.499	1300.33
840.62	1649.25
840.741	875.74
840.861	195.79
840.982	81.68
841.102	51.26
841.223	33.73
841.344	33.64
841.464	32.23
841.585	50.55
841.705	95.1
841.826	353.68
841.946	1456.31
842.067	2384.58
842.187	2619.36
842.308	2611.31
842.428	884.96
842.549	224.36
842.669	94.25
842.79	57.58
842.91	38.92
843.031	27.69
843.151	14.39
843.272	24.53
843.392	18.99
843.513	11.94
843.633	6.59
843.754	10.33
843.874	20.77
843.995	8.3
844.115	24.29
844.235	16.67
844.356	15.87
844.476	2.9
844.597	12.79
844.717	4.11
844.837	3.48
844.958	-7.77
845.078	-2.68
845.199	-10.76
845.319	5.49
845.439	9.55
845.56	1.61
845.68	-5.81
845.8	-41.09
845.921	2.3
846.041	-5.19
846.161	5.01
846.282	5.37
846.402	-2.37
846.522	0.81
846.643	7.59
846.763	-1.59
846.883	1.4
847.004	-0.79
847.124	4.5
847.244	-8.92
847.364	-4.08
847.485	3.1
847.605	5.4
847.725	-6.63
847.845	8.73
847.966	8.02
848.086	9.4
848.206	17.1
848.326	5.9
848.447	5.4
848.567	5.4
848.687	3.8
848.807	20.75
848.927	8.02
849.047	8.39
849.168	1
849.288	0.7
849.408	-3.5
849.528	6.2
849.648	-1.39
849.768	6.88
849.889	-5.19
850.009	2.2
850.129	5.58
850.249	6.29
850.369	4.69
850.489	0.21
850.609	3.7
850.729	7.56
850.849	11.58
850.97	11.19
851.09	5.16
851.21	25.87
851.33	8.49
851.45	21.76
851.57	88.24
851.69	436.28
851.81	875.58
851.93	1008.35
852.05	502.63
852.17	120.33
852.29	34.74
852.41	16.34
852.53	10.11
852.65	22.63
852.77	18.97
852.89	0.11
853.01	12.7
853.13	-1.09
853.25	13.5
853.37	0.91
853.49	15.22
853.61	7.07
853.73	7.81
853.85	4.69
853.97	-8.44
854.09	3.79
854.209	-7.87
854.329	4.5
854.449	6.76
854.569	7.48
854.689	5.19
854.809	3.8
854.929	14.36
855.049	-1.28
855.169	2.81
855.288	-27.85
855.408	2.99
855.528	4.92
855.648	4.99
855.768	8.01
855.888	6.48
856.007	-6.29
856.127	10.73
856.247	-1.39
856.367	7.38
856.487	2.49
856.606	-0.39
856.726	0.81
856.846	3.28
856.966	-7.77
857.086	-3.38
857.205	0.41
857.325	9.3
857.445	1.9
857.565	10.42
857.684	3.9
857.804	6.97
857.924	-0.29
858.044	17.72
858.163	3
858.283	-8.14
858.403	10.8
858.522	-7.57
858.642	-0.19
858.762	16.67
858.881	6.17
859.001	8
859.121	12.48
859.24	3.69
859.36	-2.28
859.48	-0.09
859.599	-0.29
859.719	2.5
859.839	8.56
859.958	-3.99
860.078	13.52
860.197	27.06
860.317	75.23
860.437	54.36
860.556	10.7
860.676	6.59
860.795	-3.77
860.915	-5.59
861.034	0.31
861.154	-6.95
861.274	13.27
861.393	8.5
861.513	5.21
861.632	17.78
861.752	38.03
861.871	35.48
861.991	8.98
862.11	9.3
862.23	2.39
862.349	1
862.469	6.71
862.588	-7.37
862.708	2.7
862.827	3.5
862.947	8.31
863.066	11.37
863.186	-12.73
863.305	4.92
863.424	6.3
863.544	9.49
863.663	1.1
863.783	-2.39
863.902	-1.59
864.022	5.58
864.141	-4.38
864.26	2.31
864.38	8.99
864.499	-7.27
864.619	2.68
864.738	1.6
864.857	-1.79
864.977	5.75
865.096	0.01
865.215	-6.98
865.335	1.7
865.454	5.81
865.573	4.7
865.693	2.6
865.812	-7.31
865.931	-4.1
866.051	8.12
866.17	1.91
866.289	18.07
866.408	59.53
866.528	235.38
866.647	173.49
866.766	42.06
866.886	15.14
867.005	6.99
867.124	13.52
867.243	3.8
867.363	-9.32
867.482	4.61
867.601	23.01
867.72	11.91
867.839	11.01
867.959	3.58
868.078	14.69
868.197	1.9
868.316	-0.19
868.435	-8.72
868.555	8.7
868.674	14.48
868.793	4.57
868.912	4.49
869.031	3.71
869.15	-4.58
869.27	-1.58
869.389	14.2
869.508	7.89
869.627	3.1
869.746	-1.68
869.865	7.26
869.984	-0.39
870.103	2.71
870.222	-1.69
870.341	15.52
870.461	-3.89
870.58	-5.99
870.699	5.16
870.818	-8.33
870.937	2.4
871.056	11.5
871.175	10.63
871.294	18.1
871.413	11.98
871.532	-1.79
871.651	4.8
871.77	4.86
871.889	1
872.008	0.31
872.127	3.68
872.246	1.7
872.365	2.11
872.484	2.4
872.603	-3.28
872.722	-0.49
872.841	7.98
872.96	0.61
873.079	-0.69
873.198	-2.99
873.316	-2
873.435	17.96
873.554	9.66
873.673	-1.09
873.792	14.22
873.911	-6.27
874.03	13.62
874.149	5.1
874.268	-4.29
874.387	-1.39
874.505	-6.37
874.624	0.61
874.743	-0.09
874.862	-0.39
874.981	5.59
875.1	2.5
875.218	-3.79
875.337	4.52
875.456	5.98
875.575	-0.19
875.694	-3.79
875.813	20.38
875.931	77.35
876.05	24.21
876.169	13.46
876.288	17.87
876.406	6.47
876.525	-3
876.644	-2.99
876.763	11.48
876.881	9.11
877	8.2
877.119	-4.5
877.238	-6.87
877.356	5.09
877.475	-0.79
877.594	1.31
877.712	12.57
877.831	11.22
877.95	9.86
878.068	-0.09
878.187	7.9
878.306	3.69
878.424	4.87
878.543	0.51
878.662	5.89
878.78	-9.64
878.899	-0.39
879.018	4.31
879.136	1.5
879.255	9.62
879.374	10.05
879.492	5.4
879.611	17.81
879.729	23.76
879.848	5.67
879.966	-1.89
880.085	2.3
880.204	2.89
880.322	16.52
880.441	2.11
880.559	2.2
880.678	-3.27
880.796	6.03
880.915	-2.09
881.033	8.2
881.152	-0.99
881.27	2.99
881.389	2.61
881.507	-3.29
881.626	1.59
881.744	4.78
881.863	11.2
881.981	8.3
882.1	-10.1
882.218	0.5
882.337	-4.58
882.455	2.8
882.574	1.61
882.692	-1.88
882.81	3.61
882.929	-2.39
883.047	-16.45
883.166	0.41
883.284	-0.19
883.403	3.2
883.521	15.3
883.639	29.39
883.758	5.8
883.876	-0.99
883.994	6.36
884.113	9.22
884.231	8.41
884.349	10.51
884.468	1.3
884.586	0.11
884.705	17.81
884.823	33.1
884.941	8.07
885.059	11.68
885.178	10.74
885.296	0.21
885.414	0.01
885.533	5.9
885.651	6.79
885.769	1.91
885.887	0.01
886.006	12.06
886.124	4.6
886.242	-0.79
886.36	6.6
886.479	0.41
886.597	8.7
886.715	1.31
886.833	-2.18
886.952	6.18
887.07	-4.39
887.188	16.9
887.306	-5.74
887.424	4.68
887.543	8.9
887.661	-4.88
887.779	2.49
887.897	1.69
888.015	-3.58
888.133	7.19
888.251	-2.78
888.37	-8.57
888.488	-2.6
888.606	4.01
888.724	-3.67
888.842	10.32
888.96	4.69
889.078	-5.39
889.196	1.1
889.314	9.74
889.433	9.2
889.551	-0.59
889.669	4.58
889.787	-5.88
889.905	1.8
890.023	3
890.141	3.29
890.259	5.1
890.377	-1.89
890.495	4.09
890.613	7.43
890.731	-0.59
890.849	12.6
890.967	-1.69
891.085	22.81
891.203	9.02
891.321	2.61
891.439	11.3
891.557	-2.76
891.675	-4.96
891.793	3.9
891.911	2.3
892.029	11.36
892.147	7.49
892.265	2.71
892.383	6.91
892.5	4.47
892.618	-4.16
892.736	3.11
892.854	-4.09
892.972	0.4
893.09	13.37
893.208	-3.19
893.326	-7.91
893.444	6.77
893.561	0.11
893.679	-0.49
893.797	3.21
893.915	8.36
894.033	-7.88
894.151	-0.99
894.268	-5.08
894.386	-0.19
894.504	-16.12
894.622	-1.89
894.74	-1.99
894.857	0.01
894.975	18.03
895.093	3.8
895.211	-0.39
895.329	1.5
895.446	-6.55
895.564	3.4
895.682	1.5
895.8	-2.79
895.917	4.97
896.035	6.81
896.153	14.65
896.271	7.26
896.388	4.29
896.506	3.81
896.624	1.01
896.741	7.39
896.859	6.73
896.977	8.02
897.094	4.9
897.212	-2.18
897.33	-4.57
897.447	-0.79
897.565	-1.79
897.683	-6.38
897.8	1.8
897.918	-3.09
898.036	-7.09
898.153	-0.09
898.271	3.01
898.388	16.1
898.506	1.31
898.624	-19.53
898.741	1.31
898.859	12.49
898.976	6.49
899.094	-1.39
899.211	-1.79
899.329	0.31
899.447	-2.69
899.564	-9.15
899.682	1.01
899.799	-2.3
899.917	8.38
900.034	-2.49
900.152	12.42
900.269	-0.49
900.387	-3.49
900.504	2.78
900.622	-7.35
900.739	11.58
900.857	0.41
900.974	2.8
901.092	-0.09
901.209	-4.5
901.326	6.68
901.444	-7.35
901.561	-8.64
901.679	1.5
901.796	-0.59
901.914	-1.98
902.031	5.89
902.148	10.22
902.266	0.21
902.383	-0.29
902.501	11.59
902.618	-6.58
902.735	2.81
902.853	-1.69
902.97	-15.25
903.087	-5.89
903.205	-5.8
903.322	12.99
903.439	-3.78
903.557	-1.19
903.674	7.11
903.791	6.76
903.909	0.8
904.026	2.11
904.143	6.8
904.261	3.19
904.378	-0.99
904.495	5.81
904.612	-2.8
904.73	-1.29
904.847	-8.85
904.964	1.11
905.081	-1.69
905.199	7.87
905.316	6.86
905.433	-1.59
905.55	1.61
905.668	-0.09
905.785	1.6
905.902	-5.88
906.019	7.81
906.136	4.38
906.254	6.18
906.371	7
906.488	12.47
906.605	4.78
906.722	14.21
906.839	-2.89
906.957	-2.99
907.074	39.8
907.191	19.42
907.308	28.85
907.425	13.2
907.542	13.78
907.659	7.25
907.776	6.3
907.893	-5.47
908.011	-0.09
908.128	0.31
908.245	-2.89
908.362	7.4
908.479	1
908.596	2.4
908.713	15.7
908.83	0.41
908.947	7.05
909.064	6.71
909.181	10.02
909.298	5.61
909.415	-1.49
909.532	3.68
909.649	4.21
909.766	7.9
909.883	-3.08
910	11.13
910.117	-10.59
910.234	4.19
910.351	-4.77
910.468	-2.79
910.585	1.91
910.702	4.92
910.819	0.6
910.936	5.4
911.053	11.18
911.17	14.74
911.287	11.81
911.403	-1.19
911.52	14.4
911.637	24.43
911.754	49.12
911.871	183.35
911.988	1119.58
912.105	2421.44
912.222	1035.6
912.338	551.47
912.455	380.25
912.572	305.84
912.689	199.96
912.806	105.48
912.923	50.66
913.039	34.03
913.156	23.15
913.273	17.57
913.39	14.25
913.507	6.5
913.623	0.7
913.74	13.7
913.857	4.91
913.974	4.4
914.091	-7.84
914.207	1
914.324	1.3
914.441	1.81
914.558	5.46
914.674	6.49
914.791	6.01
914.908	10.69
915.024	-5.26
915.141	5.07
915.258	7.12
915.375	3.31
915.491	1.2
915.608	1.4
915.725	-0.19
915.841	7.11
915.958	10.22
916.075	-2.47
916.191	14.33
916.308	8.59
916.425	-2.58
916.541	11.51
916.658	3.5
916.774	-0.99
916.891	1.9
917.008	-1.98
917.124	4.89
917.241	14.34
917.357	-4.98
917.474	-0.19
917.591	4.41
917.707	-4.49
917.824	2.48
917.94	12.16
918.057	3.9
918.173	0.91
918.29	6.99
918.406	3.28
918.523	-6.07
918.639	2.4
918.756	13.1
918.872	4.48
918.989	9.53
919.105	16.45
919.222	48.9
919.338	43.59
919.455	26.7
919.571	23.21
919.688	10.67
919.804	-46
919.921	8.59
920.037	5.89
920.154	6.17
920.27	0.31
920.386	6.38
920.503	-8.8
920.619	6.39
920.736	2.39
920.852	-0.79
920.968	-6.39
921.085	3.18
921.201	7.65
921.318	-0.19
921.434	12.5
921.55	4.99
921.667	1.8
921.783	5.81
921.899	20.06
922.016	47.52
922.132	271.35
922.248	560
922.365	273.66
922.481	144.29
922.597	97.96
922.714	69.88
922.83	63.67
922.946	45.47
923.062	34.1
923.179	24.75
923.295	10.9
923.411	9.37
923.527	0.8
923.644	-4.79
923.76	4.9
923.876	4.49
923.992	11.77
924.109	7.6
924.225	13.11
924.341	4.59
924.457	-1.99
924.573	0.21
924.69	8.8
924.806	-0.49
924.922	-1.98
925.038	-8.89
925.154	-2.38
925.27	3.71
925.387	2.99
925.503	2.31
925.619	0.71
925.735	-4.48
925.851	2
925.967	8.52
926.083	7.31
926.199	6.98
926.316	1.1
926.432	-7.5
926.548	13.88
926.664	1.8
926.78	1.39
926.896	-6.29
927.012	3.71
927.128	-1.39
927.244	7.48
927.36	-0.29
927.476	10.67
927.592	-10.78
927.708	3.19
927.824	-10.52
927.94	-1.09
928.056	-4.56
928.172	1.5
928.288	3.22
928.404	-7.08
928.52	-4.29
928.636	14.57
928.752	8.4
928.868	20.62
928.984	14.73
929.1	8.97
929.216	3.11
929.332	12.97
929.448	2
929.564	15.29
929.68	-0.99
929.796	-5.28
929.911	3.29
930.027	-6.18
930.143	16.01
930.259	-10.58
930.375	1.6
930.491	-2.68
930.607	3.01
930.723	3.9
930.838	6.56
930.954	-3.19
931.07	14.6
931.186	1.01
931.302	3.19
931.418	3.29
931.533	7.69
931.649	4
931.765	5.68
931.881	-0.69
931.997	-1.89
932.112	-36.6
932.228	0.7
932.344	-19.91
932.46	-8.29
932.576	-5.39
932.691	-3.77
932.807	7.99
932.923	-10.37
933.038	4.3
933.154	6.3
933.27	6.1
933.386	7.19
933.501	0.61
933.617	4.81
933.733	23.18
933.848	-6.7
933.964	5.89
934.08	4.57
934.195	6.15
934.311	6.32
934.427	-0.79
934.542	8.59
934.658	7.95
934.774	9.6
934.889	7.79
935.005	17.86
935.121	25.3
935.236	29.03
935.352	23.2
935.467	14.88
935.583	14.67
935.699	13.87
935.814	8.81
935.93	8.35
936.045	7.57
936.161	12.87
936.276	-7
936.392	2.98
936.507	5.08
936.623	2.3
936.739	2.21
936.854	-0.29
936.97	4.58
937.085	4.99
937.201	5.3
937.316	-0.49
937.432	3.99
937.547	12.49
937.663	1.31
937.778	8.43
937.893	-7.35
938.009	5.8
938.124	6.99
938.24	3.99
938.355	-3.87
938.471	8.6
938.586	6.18
938.702	7.07
938.817	5
938.932	14.47
939.048	5.19
939.163	0.31
939.279	2.19
939.394	0.71
939.509	-2.78
939.625	-4.88
939.74	4.41
939.855	4.8
939.971	0.31
940.086	5.18
940.201	5.38
940.317	-7.47
940.432	6.59
940.547	0.81
940.663	14.42
940.778	0.31
940.893	-3.39
941.009	-1.88
941.124	-3.97
941.239	1.41
941.355	5.19
941.47	-6.05
941.585	2.29
941.7	5.31
941.816	15.61
941.931	-5.55
942.046	-11.64
942.161	9.01
942.276	-2.19
942.392	-7.84
942.507	4.49
942.622	4.9
942.737	1.51
942.852	4.39
942.968	0.01
943.083	0.11
943.198	1.8
943.313	-1.49
943.428	6.74
943.544	1.21
943.659	-0.39
943.774	-5.6
943.889	3.51
944.004	-2.69
944.119	2.3
944.234	-5.05
944.349	-3.09
944.465	3.7
944.58	2.2
944.695	0.21
944.81	6.77
944.925	2
945.04	-4.19
945.155	3.19
945.27	-16.12
945.385	-6.29
945.5	14.33
945.615	1.7
945.73	16.48
945.845	7.01
945.96	13.32
946.075	8.67
946.19	3.89
946.305	3.5
946.42	5.59
946.535	-3.57
946.65	0.31
946.765	-2.19
946.88	1.21
946.995	7.57
947.11	-3.99
947.225	6.69
947.34	-1.49
947.455	-3.59
947.57	-60.79
947.685	2.8
947.8	-2.88
947.915	2.69
948.03	0.31
948.144	-1.19
948.259	3.3
948.374	0.01
948.489	-3.07
948.604	8.89
948.719	9.09
948.834	8.49
948.949	5.27
949.063	-6.29
949.178	-6.29
949.293	-6.35
949.408	1.69
949.523	0.71
949.638	8.89
949.752	4.5
949.867	1.1
949.982	-7.4
950.097	-0.89
950.212	0.8
950.326	3.48
950.441	-6.59
950.556	1.31
950.671	4.49
950.785	1.3
950.9	0.21
951.015	-7.2
951.13	10.11
951.244	4.29
951.359	4.2
951.474	-2.29
951.588	3.78
951.703	2.1
951.818	2
951.932	9.2
952.047	-1.68
952.162	-5.35
952.277	0.51
952.391	-3.08
952.506	1.6
952.62	4.57
952.735	-2.69
952.85	1.91
952.964	9.67
953.079	8.11
953.194	1.91
953.308	3.1
953.423	3.09
953.537	-1.89
953.652	-1.09
953.767	6.21
953.881	-2.89
953.996	6.38
954.11	4
954.225	3.81
954.339	5.99
954.454	-3.07
954.569	5.01
954.683	-1.49
954.798	9.87
954.912	1.1
955.027	-0.29
955.141	5.5
955.256	-4.26
955.37	-3.08
955.485	-8.16
955.599	1.21
955.714	11.7
955.828	12.35
955.943	1.51
956.057	-4.79
956.171	-0.29
956.286	8.07
956.4	17.6
956.515	-14.29
956.629	-1.39
956.744	5.15
956.858	0.11
956.972	12.89
957.087	4.78
957.201	0.61
957.316	-13.78
957.43	10.77
957.544	2
957.659	6.4
957.773	-3.99
957.887	8.6
958.002	-2.98
958.116	3.5
958.23	15.48
958.345	4.59
958.459	-4.96
958.573	-2.27
958.688	-3.89
958.802	5.78
958.916	-0.19
959.031	-10.43
959.145	7.8
959.259	3.61
959.373	0.11
959.488	4.1
959.602	-4.98
959.716	-2.49
959.831	-4.16
959.945	1
960.059	-3.08
960.173	-5.16
960.287	1.6
960.402	-6.97
960.516	3.1
960.63	-2.59
960.744	11.4
960.858	0.6
960.973	-3.19
961.087	-1.09
961.201	5.08
961.315	4.51
961.429	8.4
961.543	-2.38
961.658	9.57
961.772	3.7
961.886	0.11
962	-8.97
962.114	0.41
962.228	-10.63
962.342	-6.39
962.456	4.7
962.571	4.39
962.685	8.54
962.799	3.41
962.913	-2.99
963.027	6.3
963.141	-2.8
963.255	-2.98
963.369	0.51
963.483	1.9
963.597	9.25
963.711	-2.39
963.825	3.51
963.939	2.39
964.053	3.29
964.167	1.61
964.281	-4.58
964.395	4.89
964.509	-5.89
964.623	8.58
964.737	8.69
964.851	-4.48
964.965	11.19
965.079	15.87
965.193	17.4
965.307	39.04
965.421	171.25
965.535	306.6
965.649	170.88
965.762	128.71
965.876	96.75
965.99	61.97
966.104	66.16
966.218	55.22
966.332	60.78
966.446	38.02
966.56	38.01
966.674	28.27
966.787	21.11
966.901	17.32
967.015	17.9
967.129	6.07
967.243	12.09
967.357	10.08
967.47	8.78
967.584	1
967.698	-2.59
967.812	-3.67
967.926	8.3
968.039	2.59
968.153	-2.37
968.267	-1.29
968.381	1.5
968.494	5.06
968.608	9.34
968.722	8.09
968.836	1.3
968.949	13.37
969.063	-1.99
969.177	1.21
969.291	-5.38
969.404	5.72
969.518	1.59
969.632	0.11
969.745	-3.98
969.859	0.21
969.973	3.89
970.086	-0.49
970.2	5.79
970.314	4.69
970.427	9.75
970.541	-1.99
970.655	1.11
970.768	12.08
970.882	-3.98
970.996	12.98
971.109	-3.88
971.223	0.51
971.336	-0.79
971.45	3.6
971.564	-8.17
971.677	14.07
971.791	0.41
971.904	4.81
972.018	-0.49
972.131	-0.99
972.245	-6.27
972.358	8.5
972.472	-14.86
972.586	7.49
972.699	14.65
972.813	9.89
972.926	1.01
973.04	0.41
973.153	-1.29
973.267	-0.49
973.38	6.11
973.493	7.57
973.607	4.2
973.72	-5.4
973.834	-54.46
973.947	5.68
974.061	4.8
974.174	-6.19
974.288	-0.39
974.401	2.31
974.514	8.78
974.628	6.49
974.741	-6.08
974.855	0.81
974.968	-3.19
975.081	-1.69
975.195	10.19
975.308	-5.71
975.422	4.78
975.535	3
975.648	-3.58
975.762	-2.47
975.875	3
975.988	0.61
976.102	4
976.215	3.59
976.328	-2.07
976.442	-4.68
976.555	-3.8
976.668	4.47
976.781	6.08
976.895	0.11
977.008	4.4
977.121	5.8
977.235	-16.49
977.348	3.41
977.461	7.11
977.574	-1.79
977.688	-1.78
977.801	0.91
977.914	7.48
978.027	-4.48
978.14	31.66
978.254	28.98
978.367	15.53
978.48	12.68
978.593	17.68
978.706	10.47
978.82	7.39
978.933	8.17
979.046	8.24
979.159	4.1
979.272	-5.48
979.385	7.85
979.498	6.2
979.612	-2.5
979.725	1.3
979.838	9.19
979.951	2.7
980.064	-1.39
980.177	-2.39
980.29	11.54
980.403	1.2
980.516	7.2
980.629	2.31
980.743	5.78
980.856	-6.89
980.969	-7.38
981.082	1.51
981.195	-0.19
981.308	7.25
981.421	-1.79
981.534	-7.49
981.647	-2.39
981.76	1.7
981.873	4.7
981.986	-4.48
982.099	11.48
982.212	4.89
982.325	-3.29
982.438	0.91
982.551	-3.49
982.664	5.49
982.777	3.1
982.889	11.52
983.002	2.7
983.115	11.7
983.228	-1.19
983.341	5.59
983.454	5.68
983.567	14.91
983.68	-2.49
983.793	1.2
983.906	-3.78
984.019	1.81
984.131	12.96
984.244	0.11
984.357	2.5
984.47	0.9
984.583	-7.9
984.696	-2.39
984.808	4.89
984.921	-3.38
985.034	1.31
985.147	11.8
985.26	0.6
985.373	3
985.485	9.68
985.598	9.09
985.711	-0.99
985.824	11.17
985.936	5.92
986.049	1.9
986.162	3.69
986.275	-5.36
986.387	-1.79
986.5	10.6
986.613	1.9
986.726	6.16
986.838	4.19
986.951	3.7
987.064	7.48
987.176	2.2
987.289	3.01
987.402	4.8
987.514	-1.38
987.627	-3.48
987.74	1.21
987.852	9.48
987.965	3.89
988.078	1.7
988.19	8.3
988.303	8.7
988.416	6.09
988.528	-0.59
988.641	-2.29
988.753	3.2
988.866	3.69
988.979	-3.18
989.091	-4.47
989.204	1
989.316	-1.19
989.429	-1.19
989.541	8.79
989.654	-2.49
989.767	-2.09
989.879	1.51
989.992	-5.48
990.104	8.01
990.217	-3.58
990.329	5.4
990.442	1.31
990.554	-1.89
990.667	7.87
990.779	1.2
990.892	1.01
991.004	-5.66
991.117	7.79
991.229	-1.09
991.342	5.5
991.454	5.59
991.566	7.9
991.679	-2.99
991.791	7.39
991.904	1.51
992.016	4.87
992.129	-37.17
992.241	-5.49
992.353	9.99
992.466	1
992.578	-3.17
992.691	-1.79
992.803	5.4
992.915	2.31
993.028	-7.07
993.14	6.21
993.252	1.61
993.365	7.89
993.477	10.61
993.589	8.1
993.702	5.02
993.814	-1.09
993.926	6.19
994.039	-3.89
994.151	5.18
994.263	3.88
994.375	-0.69
994.488	-5.29
994.6	3.11
994.712	0.31
994.824	-5.68
994.937	-3.59
995.049	1.41
995.161	9.27
995.273	4.48
995.386	-0.49
995.498	-1.09
995.61	-1.19
995.722	4.29
995.834	-13.69
995.947	-1.69
996.059	-3.87
996.171	-7.89
996.283	-6.58
996.395	4.3
996.507	-4.39
996.62	-3.47
996.732	1.5
996.844	7.29
996.956	-1.09
997.068	5.19
997.18	-9.37
997.292	7.29
997.404	-9.64
997.517	-4.5
997.629	-7.51
997.741	10.18
997.853	-10.77
997.965	10.95
998.077	-9.39
998.189	-4.29
998.301	5.58
998.413	-0.39
998.525	3.5
998.637	-2.19
998.749	9.14
998.861	0.11
998.973	-2.49
999.085	17.38
999.197	-6.66
999.309	5.99
999.421	4.79
999.533	-3.39
999.645	-1.48
999.757	-0.49
999.869	-12.33
999.981	-4.68
1000.093	8.42
1000.205	1.2
1000.317	-4.3
1000.429	1.11
1000.541	8.3
1000.653	0.31
1000.765	-0.99
1000.876	-7.37
1000.988	0.61
1001.1	-9.67
1001.212	5.09
1001.324	1.61
1001.436	1.01
1001.548	7.97
1001.66	-8.99
1001.771	0.71
1001.883	7.77
1001.995	-1.69
1002.107	-0.79
1002.219	0.31
1002.331	7.47
1002.442	9.01
1002.554	-2.09
1002.666	3.39
1002.778	-2.88
1002.89	6.18
1003.001	2.9
1003.113	1.21
1003.225	2.91
1003.337	0.31
1003.448	4.5
1003.56	-0.99
1003.672	3.99
1003.784	-1.19
1003.895	5
1004.007	-0.49
1004.119	2
1004.231	0.81
1004.342	-6.58
1004.454	1.8
1004.566	3.59
1004.677	-14.13
1004.789	0.21
1004.901	6.89
1005.012	4.28
1005.124	9.93
1005.236	16.29
1005.347	-1.19
1005.459	1.1
1005.571	1.71
1005.682	11.28
1005.794	3.6
1005.905	11.7
1006.017	6.98
1006.129	-10.68
1006.24	2.81
1006.352	-1.59
1006.463	-4.27
1006.575	0.71
1006.686	6.62
1006.798	1.4
1006.91	0.61
1007.021	-5.88
1007.133	8.69
1007.244	-2.18
1007.356	14.9
1007.467	7.89
1007.579	-1.79
1007.69	-3.37
1007.802	-0.59
1007.913	-0.49
1008.025	2.61
1008.136	6.18
1008.248	1.5
1008.359	22.45
1008.471	-1.79
1008.582	3.29
1008.693	9.77
1008.805	12.79
1008.916	9.98
1009.028	-4.17
1009.139	-4.38
1009.251	-0.89
1009.362	10.06
1009.473	-1.69
1009.585	1.01
1009.696	-2.9
1009.808	-1.19
1009.919	6.99
1010.03	5.91
1010.142	-4.48
1010.253	5
1010.364	3
1010.476	6.76
1010.587	6.1
1010.698	-3.09
1010.81	6.47
1010.921	2.5
1011.032	7.6
1011.144	-5.97
1011.255	-1.39
1011.366	-6.08
1011.478	11.46
1011.589	1.41
1011.7	5.39
1011.811	8.68
1011.923	-2.49
1012.034	-0.49
1012.145	10.07
1012.256	3.3
1012.368	4.88
1012.479	11.62
1012.59	12.06
1012.701	7.97
1012.812	-4.87
1012.924	-4.98
1013.035	-5.36
1013.146	-4.08
1013.257	4
1013.368	-4.49
1013.48	-7.27
1013.591	4.72
1013.702	1.11
1013.813	-6.97
1013.924	3.48
1014.035	-6.6
1014.146	-5.47
1014.257	-1.59
1014.369	-5.88
1014.48	0.41
1014.591	-6.07
1014.702	0.91
1014.813	-5.87
1014.924	1.4
1015.035	-4.59
1015.146	-2.38
1015.257	-14.74
1015.368	6.58
1015.479	-2.89
1015.59	6.79
1015.701	-14.54
1015.812	4.5
1015.924	4.91
1016.035	2.81
1016.146	-2.8
1016.257	-4.19
1016.368	2.11
1016.479	-9.17
1016.59	-9.88
1016.7	-2.88
1016.811	-0.69
1016.922	1.8
1017.033	3.3
1017.144	1.6
1017.255	10.42
1017.366	9.38
1017.477	6.29
1017.588	3.9
1017.699	3.29
1017.81	4.19
1017.921	2.4
1018.032	5.5
1018.143	6
1018.253	12.74
1018.364	-9.03
1018.475	3.61
1018.586	-3.7
1018.697	1.41
1018.808	-3.68
1018.919	4.69
1019.029	-6.97
1019.14	1.91
1019.251	-0.69
1019.362	-1.09
1019.473	-1.09
1019.584	4.1
1019.694	3.51
1019.805	0.9
1019.916	-9.5
1020.027	10.8
1020.137	-2.49
1020.248	-5.64
1020.359	4.79
1020.47	-6.97
1020.581	0.31
1020.691	-1.49
1020.802	-2.08
1020.913	0.91
1021.023	3.5
1021.134	3.59
1021.245	-2.88
1021.356	14.58
1021.466	-7.58
1021.577	2.7
1021.688	12.85
1021.798	7.89
1021.909	-13.93
1022.02	3.19
1022.13	-7.08
1022.241	3.99
1022.352	-2.99
1022.462	4.19
1022.573	2.3
1022.683	-7.08
1022.794	9.64
1022.905	-8.36
1023.015	8.48
1023.126	-12.38
1023.236	5.8
1023.347	-3.67
1023.458	3.4
1023.568	-4.28
1023.679	8.38
1023.789	-5.27
1023.9	-1.69
1024.01	15.14
1024.121	1.4
1024.231	6.38
1024.342	7.7
1024.453	-3.79
1024.563	3.49
1024.674	2.5
1024.784	1.51
1024.895	4.79
1025.005	7.77
1025.116	-0.59
1025.226	1.1
1025.336	5.81
1025.447	5.09
1025.557	5.02
1025.668	0.51
1025.778	-15.1
1025.889	6.4
1025.999	2.3
1026.11	-3.28
1026.22	-7.38
1026.33	4.98
1026.441	3.19
1026.551	0.21
1026.662	-2.59
1026.772	4.99
1026.882	0.5
1026.993	2.9
1027.103	5.8
1027.213	-5.39
1027.324	2.2
1027.434	-4.99
1027.544	7.7
1027.655	5.79
1027.765	-6.9
1027.875	0.31
1027.986	-9.48
1028.096	8.48
1028.206	2.8
1028.317	-7.91
1028.427	0.11
1028.537	-8.63
1028.647	-2.48
1028.758	-454.03
1028.868	4.4
1028.978	-0.69
1029.088	-5.36
1029.199	-2.7
1029.309	1
1029.419	4.28
1029.529	14.31
1029.639	6.51
1029.75	0.71
1029.86	5.07
1029.97	1.1
1030.08	-9.58
1030.19	-0.39
1030.301	5.3
1030.411	-5.77
1030.521	0.31
1030.631	1.3
1030.741	2.3
1030.851	2.9
1030.961	12.37
1031.072	12.41
1031.182	9.95
1031.292	-3.58
1031.402	-1.49
1031.512	3.6
1031.622	7
1031.732	-10.18
1031.842	2.4
1031.952	-1.29
1032.062	1.5
1032.172	-2.29
1032.282	6.18
1032.393	0.81
1032.503	-2.19
1032.613	4.68
1032.723	11.98
1032.833	1.1
1032.943	3.2
1033.053	-1.59
1033.163	2.31
1033.273	1.7
1033.383	2
1033.493	-2.88
1033.603	-9.88
1033.713	-2.49
1033.823	0.91
1033.932	-5.05
1034.042	7.59
1034.152	-1.88
1034.262	-1.88
1034.372	13.17
1034.482	-5.88
1034.592	-6.46
1034.702	5.89
1034.812	-0.59
1034.922	8.5
1035.032	12.39
1035.141	-2.98
1035.251	3.99
1035.361	-7.7
1035.471	10
1035.581	-2.49
1035.691	-6.28
1035.801	9.88
1035.91	9.98
1036.02	3.99
1036.13	12.04
1036.24	2.4
1036.35	-13.47
1036.46	-2.88
1036.569	1
1036.679	-2.29
1036.789	-8.38
1036.899	-2.29
1037.008	-3.49
1037.118	-11.98
1037.228	-12.76
1037.338	-7.48
1037.447	9.96
1037.557	-5.99
1037.667	-3.9
1037.777	6.27
1037.886	-0.69
1037.996	-8.2
1038.106	4.71
1038.215	0.01
1038.325	5.87
1038.435	4.29
1038.544	4.71
1038.654	-1.59
1038.764	2.8
