Data from 191228_Ar05mT_100W_ALA10_8000ms_Subt2_02-11-27-454.txt Node
Date: Sun Dec 29 02:11:27 KST 2019
User: L102
Spectrometer: HR4D2517
Trigger mode: 4
Integration Time (sec): 8.000000E0
Scans to average: 1
Electric dark correction enabled: true
Nonlinearity correction enabled: true
Boxcar width: 0
XAxis mode: Wavelengths
Number of Pixels in Spectrum: 3648
>>>>>Begin Spectral Data<<<<<
597.141	-17.83
597.272	-17.83
597.404	-17.83
597.536	0.42
597.668	9.55
597.8	-2.57
597.932	6.39
598.064	-5.63
598.196	6.82
598.328	5.23
598.46	0.64
598.591	4.81
598.723	3.75
598.855	11.64
598.987	-2.97
599.119	-8.83
599.251	-13.57
599.383	-5.77
599.514	5.8
599.646	8.64
599.778	6.75
599.91	4.15
600.042	3.81
600.173	13.63
600.305	-2.26
600.437	13.46
600.569	-2.65
600.701	17.46
600.832	6.25
600.964	10.44
601.096	12.42
601.228	8.38
601.359	9.14
601.491	3.04
601.623	8.03
601.755	6.71
601.886	8.56
602.018	14.42
602.15	20.17
602.281	16.47
602.413	21.39
602.545	21.08
602.677	19.4
602.808	43.6
602.94	48.04
603.072	67.94
603.203	35.9
603.335	5.33
603.467	19.37
603.598	15.04
603.73	17.16
603.862	15.3
603.993	26.11
604.125	37.4
604.256	20.94
604.388	16.89
604.52	3.44
604.651	8.53
604.783	10.94
604.915	-2.26
605.046	8.03
605.178	-0.86
605.309	10.13
605.441	18.62
605.572	17.03
605.704	8.74
605.836	13.16
605.967	4.32
606.099	-0.26
606.23	-2.26
606.362	1.24
606.493	9.02
606.625	8.13
606.756	4.55
606.888	-3.37
607.019	4.85
607.151	-3.07
607.282	3.94
607.414	5.42
607.545	-9.23
607.677	5.73
607.808	14.49
607.94	0.53
608.071	-0.26
608.203	8.15
608.334	6.94
608.466	14.31
608.597	1.14
608.728	11.32
608.86	3.24
608.991	-4.97
609.123	3.84
609.254	7.93
609.386	-0.66
609.517	6.5
609.648	24.02
609.78	6.84
609.911	11.66
610.043	11.77
610.174	5.03
610.305	9.46
610.437	9.93
610.568	0.34
610.699	10.47
610.831	8.16
610.962	8.74
611.093	3.73
611.225	6.09
611.356	8.85
611.487	-1.06
611.619	13.65
611.75	4.54
611.881	-4.57
612.013	4.83
612.144	-0.16
612.275	2.42
612.406	4.53
612.538	1.84
612.669	11.7
612.8	3.72
612.931	18.07
613.063	1.34
613.194	-1.86
613.325	4.73
613.456	7.34
613.588	-3.57
613.719	1.73
613.85	7.22
613.981	8.53
614.112	16.5
614.244	22.37
614.375	28.61
614.506	18.93
614.637	1.93
614.768	12.47
614.9	8.12
615.031	-3.77
615.162	0.94
615.293	8.2
615.424	15.57
615.555	-1.87
615.686	-0.36
615.818	3.13
615.949	7.11
616.08	6.76
616.211	6.84
616.342	0.94
616.473	1.84
616.604	7.26
616.735	14.83
616.866	23.77
616.998	18.9
617.129	9.43
617.26	11.14
617.391	-5.74
617.522	11.74
617.653	24.66
617.784	1.24
617.915	9.7
618.046	1.34
618.177	2.73
618.308	-2.16
618.439	-2.05
618.57	12.85
618.701	13.97
618.832	-2.07
618.963	-2.26
619.094	1.73
619.225	2.44
619.356	5.05
619.487	6.41
619.618	6.7
619.749	10.23
619.88	0.74
620.011	-3.26
620.142	6.02
620.273	8.13
620.404	2.64
620.535	2.63
620.665	12.52
620.796	13.13
620.927	10.05
621.058	15.12
621.189	21.76
621.32	19.97
621.451	5.34
621.582	11.36
621.713	19.64
621.844	-9.37
621.974	4.65
622.105	8.32
622.236	3.22
622.367	0.64
622.498	11.05
622.629	2.14
622.759	3.63
622.89	0.44
623.021	-2.76
623.152	-3.16
623.283	12.6
623.414	-10.68
623.544	2.24
623.675	-0.46
623.806	12.18
623.937	-5.86
624.067	-12.67
624.198	5.12
624.329	12.91
624.46	12.62
624.59	-0.86
624.721	11.59
624.852	7.42
624.983	2.93
625.113	3.64
625.244	8.87
625.375	13.85
625.506	9.44
625.636	1.73
625.767	0.14
625.898	6.31
626.028	4.64
626.159	4.95
626.29	4.91
626.42	11.22
626.551	2.35
626.682	8.84
626.812	3.61
626.943	10.21
627.074	1.44
627.204	4.24
627.335	11.81
627.466	4.6
627.596	-1.56
627.727	15.26
627.857	3.43
627.988	4.73
628.119	13.14
628.249	11.73
628.38	8.78
628.51	0.64
628.641	-1.46
628.772	7.25
628.902	12.19
629.033	4.04
629.163	-4.86
629.294	9.84
629.424	18.78
629.555	22.9
629.685	13.44
629.816	3.14
629.946	3.73
630.077	11.15
630.207	1.14
630.338	22.07
630.468	26.16
630.599	20.88
630.729	10.56
630.86	2.24
630.99	12.53
631.121	5.43
631.251	3.54
631.382	-3.27
631.512	-0.26
631.643	5.4
631.773	6.64
631.904	11.12
632.034	2.43
632.164	8.7
632.295	3.24
632.425	2.24
632.556	-11.27
632.686	1.93
632.816	8.24
632.947	7.95
633.077	9.8
633.208	2.83
633.338	7.34
633.468	0.24
633.599	2.22
633.729	0.64
633.859	-7.27
633.99	7.76
634.12	5.53
634.25	-6.26
634.381	2.64
634.511	6.74
634.641	5.53
634.772	5.52
634.902	2.34
635.032	7.33
635.163	-3.26
635.293	-1.26
635.423	1.84
635.553	13.04
635.684	3.72
635.814	4.42
635.944	13.84
636.074	7.93
636.205	3.44
636.335	5.79
636.465	9.66
636.595	4.84
636.726	3.43
636.856	8.44
636.986	-10.77
637.116	12.56
637.246	3.73
637.377	1.43
637.507	-1.06
637.637	0.84
637.767	8.91
637.897	-1.95
638.027	2.04
638.158	11.05
638.288	18.88
638.418	5.62
638.548	-2.47
638.678	10.92
638.808	-0.76
638.938	-1.55
639.069	-1.86
639.199	0.84
639.329	-4.35
639.459	-2.77
639.589	0.04
639.719	-8.06
639.849	4.93
639.979	-9.27
640.109	11.24
640.239	11.17
640.369	4.02
640.5	6.5
640.63	-2.26
640.76	22.34
640.89	13.63
641.02	2.23
641.15	8.83
641.28	23.57
641.41	25
641.54	30.15
641.67	13.37
641.8	11.64
641.93	5.62
642.06	-7.45
642.19	-6.35
642.32	-2.76
642.45	5.59
642.58	10.31
642.71	3.33
642.84	2.84
642.97	10.94
643.1	2.73
643.229	3.13
643.359	-4.17
643.489	0.73
643.619	5.3
643.749	6.64
643.879	5.04
644.009	4.13
644.139	10.35
644.269	6.54
644.399	16.22
644.529	5.81
644.658	4.12
644.788	-4.95
644.918	13.14
645.048	1.34
645.178	7.62
645.308	9.11
645.438	9.73
645.567	8.28
645.697	5.7
645.827	-0.36
645.957	-0.86
646.087	10.81
646.216	8.02
646.346	15.53
646.476	8.04
646.606	10.3
646.736	-4.36
646.865	21.12
646.995	6.83
647.125	1.63
647.255	-5.22
647.384	2.13
647.514	4.44
647.644	4.52
647.774	-0.36
647.903	0.24
648.033	-1.36
648.163	5.73
648.293	-2.75
648.422	-4.06
648.552	-9.76
648.682	-1.35
648.811	-2.85
648.941	6.85
649.071	3.14
649.2	-0.66
649.33	5.74
649.46	-3.96
649.589	0.74
649.719	-1.76
649.849	13.16
649.978	4.34
650.108	-3.46
650.238	11.1
650.367	-9.99
650.497	4.74
650.626	4.14
650.756	3.61
650.886	2.54
651.015	3.83
651.145	6.62
651.274	3.22
651.404	12.98
651.534	10.83
651.663	2.34
651.793	9.2
651.922	7.28
652.052	-6.65
652.181	-0.96
652.311	5.9
652.44	1.24
652.57	0.04
652.699	-5.36
652.829	5.23
652.958	6.51
653.088	20.39
653.217	12.66
653.347	16.14
653.476	11.33
653.606	-2.16
653.735	12.1
653.865	-1.75
653.994	1.24
654.124	4.45
654.253	4.44
654.383	14.52
654.512	2.43
654.642	0.44
654.771	-7.28
654.9	-5.34
655.03	-2.25
655.159	-6.66
655.289	19.52
655.418	5.6
655.547	-1.85
655.677	4.33
655.806	1.03
655.936	8.87
656.065	7.51
656.194	2.73
656.324	-1.77
656.453	5.13
656.582	0.54
656.712	4.44
656.841	8.14
656.97	7.92
657.1	4.81
657.229	2.94
657.358	-2.87
657.488	-0.36
657.617	-1.16
657.746	1.54
657.876	-4.67
658.005	4.54
658.134	-4.05
658.263	-8.26
658.393	9.62
658.522	11.87
658.651	7.84
658.78	-1.96
658.91	-6.35
659.039	3.84
659.168	14.97
659.297	5.94
659.427	1.04
659.556	2.63
659.685	4.94
659.814	10.36
659.943	10.03
660.073	22.82
660.202	16.63
660.331	26.08
660.46	14.33
660.589	6.22
660.719	-2.45
660.848	5.45
660.977	-1.56
661.106	-4.36
661.235	13.88
661.364	9.73
661.493	3.04
661.623	5.93
661.752	4.22
661.881	3.43
662.01	3.73
662.139	10.39
662.268	4.23
662.397	-4.36
662.526	1.83
662.655	9.03
662.784	-0.76
662.913	1.53
663.043	5.43
663.172	1.82
663.301	1.13
663.43	-4.55
663.559	9.56
663.688	-5.64
663.817	-2.25
663.946	8.65
664.075	-14.4
664.204	8.39
664.333	0.04
664.462	4.13
664.591	1.74
664.72	-3.04
664.849	-1.26
664.978	3.83
665.107	6.13
665.236	8.11
665.365	-3.94
665.494	6.94
665.623	8.86
665.751	9.38
665.88	16.85
666.009	9.65
666.138	6.34
666.267	16.52
666.396	13.13
666.525	8.23
666.654	9.44
666.783	-2.55
666.912	8.8
667.041	1.94
667.169	1.04
667.298	9.8
667.427	12.26
667.556	6.85
667.685	6.84
667.814	2.83
667.943	3.43
668.071	5.54
668.2	15.27
668.329	14.4
668.458	3.42
668.587	2.04
668.716	-0.56
668.844	2.32
668.973	7.69
669.102	6.34
669.231	7.72
669.359	6.82
669.488	15.7
669.617	13.32
669.746	18.26
669.875	3.13
670.003	14.35
670.132	-8.45
670.261	11.55
670.389	-4.46
670.518	3.32
670.647	0.04
670.776	-5.35
670.904	2.84
671.033	8.11
671.162	6.34
671.29	-6.95
671.419	11.83
671.548	5.74
671.676	0.94
671.805	14.97
671.934	4.12
672.062	14.68
672.191	0.84
672.32	8.03
672.448	4.52
672.577	6.21
672.706	6.74
672.834	1.04
672.963	15.95
673.092	6.71
673.22	13.15
673.349	-0.46
673.477	11
673.606	11.41
673.735	11.24
673.863	8.57
673.992	9.21
674.12	18.35
674.249	15.81
674.377	28.81
674.506	40.36
674.634	52.01
674.763	56.82
674.892	72.92
675.02	89.07
675.149	107.96
675.277	66.62
675.406	33.45
675.534	13.41
675.663	5.93
675.791	4.13
675.92	-3.76
676.048	7.32
676.176	12.25
676.305	14.5
676.433	18.33
676.562	18.13
676.69	2.83
676.819	5.43
676.947	6.64
677.076	-15.4
677.204	6.53
677.332	12.31
677.461	1.14
677.589	3.33
677.718	11.71
677.846	14.17
677.975	2.63
678.103	-13.64
678.231	-4.94
678.36	6.34
678.488	0.14
678.616	6.42
678.745	11.61
678.873	8.92
679.001	-2.56
679.13	8.75
679.258	0.54
679.386	8.31
679.515	9.13
679.643	4.83
679.771	2.33
679.9	-3.67
680.028	13.26
680.156	10.82
680.285	14.99
680.413	4.95
680.541	0.54
680.669	7.9
680.798	2.63
680.926	0.34
681.054	8.03
681.182	6.81
681.311	11.28
681.439	-1.76
681.567	0.44
681.695	9.63
681.824	10.76
681.952	-1.06
682.08	1.64
682.208	-15.76
682.336	-5.46
682.465	1.84
682.593	11.81
682.721	5.74
682.849	11.18
682.977	6.24
683.105	-0.16
683.234	3.24
683.362	-1.25
683.49	-7.35
683.618	-4.66
683.746	-2.84
683.874	-6.26
684.002	11.04
684.131	-1.56
684.259	-0.46
684.387	3.74
684.515	2.74
684.643	-4.16
684.771	-0.26
684.899	-5.45
685.027	12.97
685.155	13.71
685.283	2.92
685.411	10.12
685.539	7.02
685.667	12.12
685.796	9.52
685.924	19.87
686.052	12.32
686.18	24.14
686.308	37.98
686.436	45.14
686.564	47.57
686.692	69.89
686.82	67.76
686.948	96.25
687.076	76.71
687.204	40.59
687.332	27.49
687.459	17.02
687.587	17.29
687.715	8.23
687.843	15.85
687.971	13.1
688.099	7.53
688.227	14.5
688.355	20.43
688.483	13.66
688.611	17.79
688.739	19.44
688.867	8.42
688.995	1.13
689.122	-2.97
689.25	-2.06
689.378	-0.16
689.506	2.92
689.634	-6.46
689.762	-0.56
689.89	4.23
690.018	4.52
690.145	5.13
690.273	2.43
690.401	7.61
690.529	0.34
690.657	13.12
690.784	-3.96
690.912	6.61
691.04	0.53
691.168	9.63
691.296	0.84
691.423	8.79
691.551	7.82
691.679	6.34
691.807	3.93
691.935	-3.46
692.062	17.35
692.19	8.43
692.318	12.12
692.446	14.19
692.573	8.3
692.701	17.07
692.829	24.95
692.956	19
693.084	35.6
693.212	27.12
693.34	25.12
693.467	29.26
693.595	40.29
693.723	39.43
693.85	15.08
693.978	24.33
694.106	9.01
694.233	9.82
694.361	13.09
694.489	5.23
694.616	28.76
694.744	26.04
694.871	24.14
694.999	33.03
695.127	31.33
695.254	39.16
695.382	37.84
695.509	59.49
695.637	69.27
695.765	83.39
695.892	104.91
696.02	127.73
696.147	136.8
696.275	166.74
696.403	212.37
696.53	160.58
696.658	65.09
696.785	21.32
696.913	7.33
697.04	11.7
697.168	7.41
697.295	0.14
697.423	9.52
697.55	16.04
697.678	-0.86
697.805	8.72
697.933	-2.96
698.06	-2.55
698.188	-2.46
698.315	0.34
698.443	11.44
698.57	4.43
698.698	8.19
698.825	1.24
698.952	9.14
699.08	1.74
699.207	-6.37
699.335	2.34
699.462	4.54
699.59	13.67
699.717	3.42
699.844	6.03
699.972	5.74
700.099	-1.26
700.227	-2.84
700.354	-3.56
700.481	5.03
700.609	10.07
700.736	9.62
700.863	12.52
700.991	5.33
701.118	-3.25
701.245	4.71
701.373	12.08
701.5	7.8
701.627	9.21
701.755	2.73
701.882	15.36
702.009	9.34
702.137	13.77
702.264	39.57
702.391	43.91
702.518	42.31
702.646	42.74
702.773	51.67
702.9	58.69
703.027	53.47
703.155	13.13
703.282	10.81
703.409	10.72
703.536	10.54
703.664	3.73
703.791	12.63
703.918	2.13
704.045	11.76
704.172	9.94
704.3	20.23
704.427	7.04
704.554	15.72
704.681	17.14
704.808	14.99
704.936	6.23
705.063	16.01
705.19	24.7
705.317	30.46
705.444	27.75
705.571	45.11
705.698	62.24
705.826	55.43
705.953	88.42
706.08	109.7
706.207	119.18
706.334	155.85
706.461	183.36
706.588	237.04
706.715	200.14
706.842	103.58
706.969	28.57
707.096	10.95
707.224	5.72
707.351	12.55
707.478	2.73
707.605	10.5
707.732	14.62
707.859	10.91
707.986	2.74
708.113	5.84
708.24	-0.76
708.367	2.34
708.494	6.12
708.621	-1.96
708.748	-1.36
708.875	3.01
709.002	0.74
709.129	4.03
709.256	0.74
709.383	2.13
709.51	4.23
709.637	11.07
709.764	11.8
709.89	2.03
710.017	13.33
710.144	18.36
710.271	8
710.398	3.91
710.525	14.38
710.652	18.3
710.779	9.47
710.906	11.28
711.033	-4.25
711.16	-3.06
711.286	6.31
711.413	7.89
711.54	-2.25
711.667	7.04
711.794	15.24
711.921	3.92
712.048	14.84
712.174	3.34
712.301	19.08
712.428	19.75
712.555	16.86
712.682	4.84
712.808	1.94
712.935	8.12
713.062	2.14
713.189	5.63
713.316	-1.26
713.442	13.11
713.569	0.04
713.696	5.74
713.823	9.64
713.949	21.27
714.076	22.28
714.203	26.67
714.33	16.81
714.456	26.27
714.583	24.92
714.71	19.8
714.837	9.51
714.963	11.8
715.09	20.6
715.217	12.43
715.343	12.69
715.47	10.09
715.597	11.34
715.723	5.95
715.85	7.61
715.977	8.72
716.103	8.91
716.23	6.92
716.357	1.83
716.483	-3.85
716.61	7.24
716.736	13.32
716.863	3.02
716.99	-7.21
717.116	-2.66
717.243	3.43
717.369	5.04
717.496	-0.56
717.623	7.74
717.749	7.42
717.876	-3.06
718.002	6.62
718.129	9.65
718.255	9.23
718.382	-6.13
718.509	2.72
718.635	-1.76
718.762	-4.85
718.888	6.99
719.015	17.69
719.141	-7.74
719.268	7.13
719.394	7.53
719.521	6.63
719.647	9.55
719.774	6.13
719.9	25.49
720.027	32.29
720.153	20.59
720.279	23.37
720.406	47.79
720.532	47.97
720.659	40.2
720.785	33.81
720.912	0.14
721.038	0.64
721.165	6.64
721.291	3.24
721.417	10.3
721.544	5.92
721.67	1.84
721.797	3.14
721.923	3.53
722.049	7.88
722.176	-7.06
722.302	9.82
722.428	2.53
722.555	-7.94
722.681	10.92
722.807	10.72
722.934	8.04
723.06	14.74
723.186	4.22
723.313	8.75
723.439	-14.5
723.565	2.04
723.692	14.74
723.818	4.34
723.944	2.63
724.07	4.2
724.197	-1.46
724.323	3.23
724.449	-1.36
724.576	12.12
724.702	11.18
724.828	5.82
724.954	-0.06
725.081	8.78
725.207	7.44
725.333	9.14
725.459	3.53
725.585	15.41
725.712	8.44
725.838	4.03
725.964	20.23
726.09	19.89
726.216	39.22
726.343	48.75
726.469	40.99
726.595	32.45
726.721	45.39
726.847	57.29
726.973	55.18
727.099	69.13
727.226	62.76
727.352	31.48
727.478	7.82
727.604	8.51
727.73	9.95
727.856	8.04
727.982	13.09
728.108	3.13
728.234	6.65
728.361	21.18
728.487	12.72
728.613	12.02
728.739	12.93
728.865	5.92
728.991	8.51
729.117	14.43
729.243	5.73
729.369	3.23
729.495	5.01
729.621	8
729.747	5.91
729.873	6.74
729.999	8.01
730.125	4.52
730.251	11.13
730.377	20.37
730.503	28.83
730.629	22.02
730.755	29.81
730.881	34
731.007	48.25
731.133	36.88
731.259	20.23
731.385	28.18
731.511	23.57
731.637	7.73
731.763	13
731.888	-1.46
732.014	8.01
732.14	9.04
732.266	23.4
732.392	15.09
732.518	7.81
732.644	-3.86
732.77	7.03
732.896	19.6
733.021	8.81
733.147	9.11
733.273	3.33
733.399	10.63
733.525	16.28
733.651	8.12
733.777	9.25
733.902	9.41
734.028	21.08
734.154	21.55
734.28	28.33
734.406	31.8
734.531	34.3
734.657	44.82
734.783	48.55
734.909	57.47
735.034	67.48
735.16	82.34
735.286	60.71
735.412	31.39
735.537	19.75
735.663	23.49
735.789	27.84
735.915	39.78
736.04	52.94
736.166	61.52
736.292	95.15
736.418	91.76
736.543	124.26
736.669	122.94
736.795	148.92
736.92	181.42
737.046	240.52
737.172	222.96
737.297	155.79
737.423	151.09
737.549	178.2
737.674	206.76
737.8	221.64
737.926	261.63
738.051	302.92
738.177	400.34
738.302	421.99
738.428	210.84
738.554	71.77
738.679	25.75
738.805	22.63
738.93	24.94
739.056	28.09
739.182	26.93
739.307	3.33
739.433	18.19
739.558	5.41
739.684	8.63
739.809	3.03
739.935	17.33
740.06	6.51
740.186	20.4
740.311	10.91
740.437	4.43
740.562	8.22
740.688	7.09
740.813	17.82
740.939	14.99
741.064	21.25
741.19	23.46
741.315	23.75
741.441	16.23
741.566	18.72
741.692	22.81
741.817	22.43
741.943	20
742.068	22.88
742.194	23.18
742.319	36.93
742.444	33.2
742.57	16.52
742.695	21.4
742.821	16.54
742.946	11.45
743.071	22.23
743.197	29.67
743.322	1.34
743.448	33.31
743.573	30.16
743.698	12.14
743.824	7.82
743.949	5.73
744.074	5.82
744.2	4.32
744.325	7.4
744.45	12.51
744.576	-1.16
744.701	8.53
744.826	11.69
744.952	9.45
745.077	-0.46
745.202	9.01
745.327	6.82
745.453	6.85
745.578	13.86
745.703	8.01
745.828	13.2
745.954	9.52
746.079	2.64
746.204	13.54
746.329	17.18
746.455	25.13
746.58	16.23
746.705	29.94
746.83	12.63
746.956	25.44
747.081	29.01
747.206	24.01
747.331	33.66
747.456	33.06
747.582	36.68
747.707	33.24
747.832	47.14
747.957	45.84
748.082	60.07
748.207	71.46
748.332	84.45
748.458	70.42
748.583	97
748.708	134.67
748.833	158.09
748.958	198.88
749.083	270.09
749.208	361.49
749.333	466.87
749.458	614.49
749.584	676.06
749.709	824.73
749.834	958.42
749.959	1070.8
750.084	1318.25
750.209	1818.66
750.334	1523.21
750.459	721.76
750.584	452.51
750.709	428.61
750.834	450.97
750.959	504.18
751.084	552.11
751.209	684.06
751.334	865.08
751.459	494.57
751.584	154.88
751.709	55.01
751.834	28.5
751.959	25.66
752.084	16.85
752.209	16.01
752.334	4.83
752.459	20.15
752.584	14.63
752.709	-2.16
752.834	8.91
752.959	5.02
753.083	-1.65
753.208	2.73
753.333	11.54
753.458	1.54
753.583	6.22
753.708	19.5
753.833	22.66
753.958	10.24
754.083	14.2
754.207	6.51
754.332	21.3
754.457	4.74
754.582	10.22
754.707	1.83
754.832	12.92
754.956	11.72
755.081	8
755.206	1.54
755.331	9.49
755.456	11.63
755.581	8.52
755.705	19.36
755.83	8.33
755.955	3.52
756.08	9.2
756.204	3.04
756.329	2.04
756.454	16.3
756.579	-0.36
756.703	2.63
756.828	6.82
756.953	16.71
757.078	4.24
757.202	14.31
757.327	0.84
757.452	-1.06
757.576	6.42
757.701	7.72
757.826	-0.66
757.951	12.33
758.075	10.8
758.2	6.42
758.325	-3.75
758.449	11.51
758.574	10.13
758.699	8.42
758.823	10.79
758.948	5.81
759.072	-1.15
759.197	11.62
759.322	5.43
759.446	4.72
759.571	21.97
759.695	3.24
759.82	19.05
759.945	10.4
760.069	-3.26
760.194	8.95
760.318	11.21
760.443	4.64
760.568	4.73
760.692	25.69
760.817	8.64
760.941	20.65
761.066	20.3
761.19	30.6
761.315	36.73
761.439	32.29
761.564	53.48
761.688	52.58
761.813	74.31
761.937	103.19
762.062	138.98
762.186	178.99
762.311	260.15
762.435	354.57
762.56	429.21
762.684	523.54
762.809	626.15
762.933	663.15
763.057	734.77
763.182	896.31
763.306	1238.15
763.431	1246.46
763.555	494.9
763.68	150.66
763.804	57.94
763.928	35.62
764.053	15.07
764.177	16.1
764.302	19.64
764.426	12.43
764.55	9.4
764.675	10.21
764.799	-1.35
764.923	6.9
765.048	7.55
765.172	11.15
765.296	18.04
765.421	7.34
765.545	21.64
765.669	8.68
765.794	14.78
765.918	17.88
766.042	8.5
766.167	4.63
766.291	6.62
766.415	15.28
766.539	16.05
766.664	19.41
766.788	14.32
766.912	12.39
767.036	2.23
767.161	1.03
767.285	7.6
767.409	8.65
767.533	11.34
767.658	4.03
767.782	5.5
767.906	-0.16
768.03	7.51
768.154	4.03
768.279	12.01
768.403	3.92
768.527	10.4
768.651	0.83
768.775	5.74
768.899	-0.56
769.024	1.23
769.148	4.71
769.272	7.92
769.396	3.22
769.52	13.84
769.644	10.72
769.768	10.89
769.892	5.61
770.017	6.74
770.141	12.99
770.265	15.12
770.389	20.78
770.513	25.27
770.637	21.01
770.761	21.01
770.885	34.81
771.009	54.96
771.133	81.62
771.257	105.43
771.381	143.71
771.505	186.8
771.629	202
771.753	245.68
771.877	269.8
772.001	302.34
772.125	370.75
772.249	540.05
772.373	363.56
772.497	127.64
772.621	43.56
772.745	25.48
772.869	21.4
772.993	10.66
773.117	10.4
773.241	8.62
773.365	6.11
773.489	9.79
773.613	0.24
773.737	4.55
773.861	8.35
773.985	-2.35
774.109	13.44
774.233	1.54
774.357	1.34
774.48	0.74
774.604	-1.46
774.728	5.43
774.852	1.94
774.976	6.02
775.1	6.24
775.224	-7.94
775.347	7.13
775.471	-8.24
775.595	3.22
775.719	4.04
775.843	-7.23
775.967	5.54
776.09	9.5
776.214	11.41
776.338	-1.36
776.462	-1.15
776.586	15.64
776.709	6.52
776.833	6.93
776.957	9.5
777.081	0.34
777.204	10.73
777.328	2.82
777.452	1.74
777.576	-0.96
777.699	0.74
777.823	2.43
777.947	2.63
778.071	6.74
778.194	4.33
778.318	-5.64
778.442	-0.36
778.565	12.43
778.689	6.21
778.813	9.71
778.936	2.34
779.06	5.44
779.184	0.93
779.307	2.74
779.431	-2.56
779.555	-1.45
779.678	6.7
779.802	4.53
779.926	-4.53
780.049	1.44
780.173	4.71
780.296	-6.83
780.42	2.64
780.544	0.44
780.667	-3.86
780.791	3.84
780.914	2.52
781.038	4.23
781.162	9.43
781.285	-3.46
781.409	5.42
781.532	-9.13
781.656	8.93
781.779	9.32
781.903	14.78
782.026	-0.16
782.15	-0.26
782.273	5.93
782.397	-4.26
782.52	-0.06
782.644	4.74
782.767	3.72
782.891	1.04
783.014	-1.85
783.138	10.66
783.261	14.92
783.385	-0.36
783.508	14.96
783.632	-4.15
783.755	7.79
783.879	-1.16
784.002	4.94
784.125	11.31
784.249	19.55
784.372	-1.25
784.496	3.13
784.619	8.24
784.742	3.24
784.866	1.34
784.989	2.42
785.113	10.31
785.236	6.03
785.359	11.95
785.483	14.4
785.606	3.54
785.729	1.64
785.853	10.14
785.976	22.76
786.099	12.27
786.223	2.44
786.346	1.93
786.469	0.94
786.593	2.84
786.716	13.29
786.839	8.22
786.962	1.93
787.086	0.54
787.209	11.31
787.332	5.53
787.455	-0.46
787.579	4.62
787.702	6.64
787.825	-1.16
787.948	8.98
788.072	16.4
788.195	7.94
788.318	20.24
788.441	16.93
788.565	24.7
788.688	16.34
788.811	24.22
788.934	27.97
789.057	29.21
789.181	9.84
789.304	8.33
789.427	-6.85
789.55	2.43
789.673	10.69
789.796	-5.16
789.919	-4.84
790.043	7.22
790.166	14.37
790.289	6.63
790.412	11.14
790.535	10.71
790.658	16.66
790.781	6.41
790.904	5.43
791.027	10.81
791.15	0.54
791.274	4.92
791.397	9.73
791.52	7.01
791.643	3.71
791.766	7.51
791.889	15.35
792.012	9.03
792.135	9.42
792.258	9.99
792.381	-0.16
792.504	5.74
792.627	7.91
792.75	15.79
792.873	11.37
792.996	9.71
793.119	12.74
793.242	22.28
793.365	33.27
793.488	22.34
793.611	54.39
793.734	73.81
793.857	134.88
793.98	188.98
794.103	235.95
794.226	241.6
794.348	261.35
794.471	320.29
794.594	451.36
794.717	490.05
794.84	210.17
794.963	61.27
795.086	23.71
795.209	16.29
795.332	6.24
795.454	3.23
795.577	8.23
795.7	0.04
795.823	4.42
795.946	10.15
796.069	-0.56
796.192	22.53
796.314	12.44
796.437	1.04
796.56	3.03
796.683	-1.45
796.806	-1.25
796.928	8.55
797.051	7.61
797.174	11.09
797.297	6.63
797.42	-0.46
797.542	9.2
797.665	4.03
797.788	8.8
797.911	8.69
798.033	8.82
798.156	1.53
798.279	13.02
798.402	7.11
798.524	4.25
798.647	0.34
798.77	8.43
798.892	7.94
799.015	16.74
799.138	9.31
799.26	16.09
799.383	20.58
799.506	45.52
799.628	82.4
799.751	131.97
799.874	179.11
799.996	185.73
800.119	211.21
800.242	249.43
800.364	316.03
800.487	448.63
800.609	354.2
800.732	284.65
800.855	280.72
800.977	287.47
801.1	322.21
801.222	398.71
801.345	536.91
801.468	280.51
801.59	88.37
801.713	26.89
801.835	0.34
801.958	16.76
802.08	22.71
802.203	5.41
802.325	11.9
802.448	12.42
802.571	5.31
802.693	7.88
802.816	7.59
802.938	9
803.061	4.25
803.183	8.38
803.305	3.12
803.428	0.74
803.55	10.84
803.673	16.72
803.795	6.11
803.918	12.08
804.04	2.02
804.163	16.25
804.285	14.87
804.408	10.61
804.53	12.9
804.652	2.83
804.775	12.71
804.897	52.37
805.02	13.42
805.142	27.9
805.264	24.39
805.387	15.48
805.509	10.39
805.631	-5.68
805.754	16.12
805.876	-2.96
805.999	5.33
806.121	6.41
806.243	4.41
806.366	7.42
806.488	9.94
806.61	-1.85
806.733	5.44
806.855	1.43
806.977	7.7
807.099	4.74
807.222	18.15
807.344	5.32
807.466	14.24
807.589	3.72
807.711	7.64
807.833	13.82
807.955	20.03
808.078	8.01
808.2	10.14
808.322	19.53
808.444	21.36
808.566	17.23
808.689	18.19
808.811	86.48
808.933	27
809.055	33.53
809.177	54.52
809.3	95.62
809.422	163.41
809.544	329.97
809.666	523.23
809.788	551.15
809.911	580.55
810.033	693.34
810.155	1001.4
810.277	985.95
810.399	490.58
810.521	412.2
810.643	782.59
810.765	1545.75
810.888	1928.39
811.01	1888.07
811.132	2158.75
811.254	2668.91
811.376	3710.54
811.498	2071.32
811.62	569.79
811.742	180.51
811.864	104.06
811.986	59.4
812.108	45.81
812.23	20.89
812.352	22.68
812.474	17.38
812.596	10.3
812.718	8.73
812.84	5.52
812.962	17.23
813.084	7.55
813.206	15.27
813.328	9.33
813.45	6.52
813.572	4.85
813.694	6.64
813.816	2.43
813.938	-0.26
814.06	5.72
814.182	7.85
814.304	2.73
814.426	2.22
814.548	11.79
814.67	10.99
814.792	21.82
814.914	10.2
815.036	0.94
815.157	2.03
815.279	-7.67
815.401	13.6
815.523	6.35
815.645	8.4
815.767	5.32
815.889	4.83
816.01	2.23
816.132	2.82
816.254	8.54
816.376	4.53
816.498	8.93
816.62	4.62
816.741	3.22
816.863	5.51
816.985	16.14
817.107	11.94
817.229	7.8
817.35	5.52
817.472	4.34
817.594	2.24
817.716	15.96
817.838	17.75
817.959	-8.46
818.081	1.03
818.203	-0.06
818.325	-4.24
818.446	0.24
818.568	7.32
818.69	18.77
818.811	-8.43
818.933	2.14
819.055	9.61
819.176	5.13
819.298	2.02
819.42	-0.96
819.542	-5.14
819.663	-4.85
819.785	5.03
819.907	-0.96
820.028	6.81
820.15	1.43
820.271	10.07
820.393	11.62
820.515	-3.16
820.636	7.4
820.758	11.36
820.88	-4.04
821.001	5.53
821.123	5.83
821.244	15.39
821.366	5.5
821.487	-0.06
821.609	-5.36
821.731	8.42
821.852	-2.06
821.974	1.64
822.095	1.92
822.217	-3.85
822.338	-0.76
822.46	8.61
822.581	2.42
822.703	0.73
822.824	-1.86
822.946	0.04
823.067	-8.45
823.189	15.36
823.31	-0.26
823.432	7.01
823.553	10.43
823.675	-3.94
823.796	-2.15
823.918	0.63
824.039	12.06
824.161	4.7
824.282	6.92
824.404	2.03
824.525	6.34
824.646	11.45
824.768	7.31
824.889	10.33
825.011	13.98
825.132	18.53
825.253	14.52
825.375	8.75
825.496	18.03
825.617	34.48
825.739	140.17
825.86	253.72
825.982	261.49
826.103	291.47
826.224	392.2
826.346	332.29
826.467	91.87
826.588	24.42
826.71	18.77
826.831	3.71
826.952	3.64
827.073	13.63
827.195	10.04
827.316	14.08
827.437	6.11
827.559	1.63
827.68	3.74
827.801	4.73
827.922	-1.36
828.044	3.91
828.165	-0.66
828.286	10.96
828.407	4.5
828.529	2.23
828.65	5.04
828.771	-2.75
828.892	2.64
829.013	8.7
829.135	-6.06
829.256	-6.64
829.377	4.51
829.498	-5.84
829.619	-10.76
829.74	3.02
829.862	-6.92
829.983	-1.95
830.104	-0.86
830.225	4.44
830.346	10.3
830.467	0.83
830.588	-19.64
830.709	6.46
830.831	-6.04
830.952	5.79
831.073	3.84
831.194	2.54
831.315	7.2
831.436	-2.55
831.557	6.95
831.678	7.4
831.799	8.02
831.92	-1.35
832.041	-0.16
832.162	2.33
832.283	-2.55
832.404	11.86
832.525	-4.87
832.646	-2.75
832.767	13.35
832.888	5.1
833.009	12.21
833.13	6.22
833.251	4.02
833.372	3.54
833.493	10.6
833.614	-5.44
833.735	2.03
833.856	1.64
833.977	-0.46
834.098	8.9
834.219	4.53
834.34	-1.85
834.461	7.83
834.582	0.93
834.703	-3.64
834.824	4.3
834.945	-5.05
835.066	15.5
835.186	15.55
835.307	0.14
835.428	4.42
835.549	-1.36
835.67	2.23
835.791	-1.26
835.912	3.43
836.032	-3.07
836.153	1.63
836.274	7.64
836.395	5.05
836.516	1.94
836.637	-6.04
836.757	5.09
836.878	-7.85
836.999	0.34
837.12	1.13
837.241	4.82
837.361	-3.66
837.482	7.64
837.603	7.19
837.724	26.37
837.844	11.14
837.965	15.42
838.086	17.24
838.207	17.22
838.327	18.31
838.448	7.71
838.569	15.7
838.689	13.42
838.81	9.23
838.931	10.51
839.052	14.53
839.172	14.97
839.293	13.76
839.414	1.54
839.534	13.65
839.655	6.82
839.776	10.51
839.896	7.74
840.017	26.36
840.137	78.19
840.258	339.42
840.379	740.1
840.499	733.56
840.62	927.79
840.741	487.86
840.861	113.44
840.982	43.96
841.102	36.53
841.223	10.74
841.344	17.6
841.464	23.9
841.585	31.27
841.705	48.92
841.826	196.27
841.946	803.68
842.067	1345.59
842.187	1469.05
842.308	1461.84
842.428	498.12
842.549	127.36
842.669	58.29
842.79	33.67
842.91	7
843.031	14.77
843.151	13.32
843.272	10.25
843.392	16.32
843.513	4.02
843.633	1.63
843.754	11.56
843.874	19.41
843.995	-7.55
844.115	11.03
844.235	10.91
844.356	19.77
844.476	8.52
844.597	-0.86
844.717	0.94
844.837	-4.13
844.958	-0.06
845.078	0.34
845.199	-6.04
845.319	2.23
845.439	9.88
845.56	-0.96
845.68	-3.17
845.8	-16.72
845.921	-5.04
846.041	-3.46
846.161	-0.96
846.282	9.07
846.402	2.92
846.522	-3.36
846.643	6.12
846.763	-0.06
846.883	-4.04
847.004	-10.88
847.124	-6.75
847.244	-3.73
847.364	4.22
847.485	0.14
847.605	1.64
847.725	0.04
847.845	11.63
847.966	1.14
848.086	0.24
848.206	13.36
848.326	8.42
848.447	9.82
848.567	-4.36
848.687	-1.66
848.807	15.69
848.927	-8.47
849.047	6.52
849.168	-2.85
849.288	8.56
849.408	5.55
849.528	-3.06
849.648	4.12
849.768	2.73
849.889	-12.36
850.009	-3.05
850.129	0.83
850.249	3.13
850.369	14.38
850.489	0.83
850.609	4.83
850.729	-6.92
850.849	9.82
850.97	7.23
851.09	2.52
851.21	16.35
851.33	4.23
851.45	17.4
851.57	55.13
851.69	244.89
851.81	494.09
851.93	557.59
852.05	276.98
852.17	64.22
852.29	26.58
852.41	12.96
852.53	9.35
852.65	16.78
852.77	8.42
852.89	-3.55
853.01	4.1
853.13	-1.06
853.25	12.93
853.37	-1.66
853.49	8.88
853.61	1.93
853.73	-0.36
853.85	5.32
853.97	-3.94
854.09	3.62
854.209	-1.56
854.329	7.42
854.449	9.17
854.569	2.83
854.689	2.93
854.809	7.81
854.929	7.71
855.049	3.11
855.169	5.55
855.288	-11.38
855.408	1.53
855.528	-2.57
855.648	11.21
855.768	1.94
855.888	6.51
856.007	-17.55
856.127	3.65
856.247	3.34
856.367	6.02
856.487	4.21
856.606	1.63
856.726	-6.66
856.846	4.3
856.966	-9.74
857.086	2.93
857.205	-7.86
857.325	-0.26
857.445	4.82
857.565	6.64
857.684	-1.36
857.804	2.92
857.924	0.04
858.044	17.05
858.163	5.33
858.283	-3.94
858.403	4.54
858.522	-4.05
858.642	4.14
858.762	1.83
858.881	3.81
859.001	4.43
859.121	5.73
859.24	4.12
859.36	-6.02
859.48	9.51
859.599	-4.04
859.719	-3.56
859.839	10.48
859.958	6.24
860.078	12.05
860.197	4.53
860.317	40.31
860.437	28.86
860.556	16.13
860.676	8.82
860.795	-0.66
860.915	5.84
861.034	4.34
861.154	-9.71
861.274	8.31
861.393	4.23
861.513	2.74
861.632	10.92
861.752	21.81
861.871	24.52
861.991	2.03
862.11	15.07
862.23	-1.55
862.349	1.13
862.469	3.44
862.588	-5.44
862.708	2.23
862.827	4.43
862.947	-0.26
863.066	9.51
863.186	-6.03
863.305	-1.77
863.424	14.53
863.544	13.91
863.663	1.13
863.783	6.54
863.902	-0.46
864.022	-0.36
864.141	-4.54
864.26	4.54
864.38	11.91
864.499	-7.64
864.619	5.19
864.738	8.9
864.857	1.04
864.977	6.28
865.096	2.62
865.215	-5.76
865.335	-9.44
865.454	-2.96
865.573	4.73
865.693	-2.95
865.812	-1.87
865.931	-2.77
866.051	7.26
866.17	4.95
866.289	5.83
866.408	26.69
866.528	139.41
866.647	103.3
866.766	24.71
866.886	10.42
867.005	0.24
867.124	7.24
867.243	1.44
867.363	-1.05
867.482	10.74
867.601	17.37
867.72	2.74
867.839	5.19
867.959	-0.46
868.078	-0.96
868.197	-8.64
868.316	2.03
868.435	-3.34
868.555	18.73
868.674	9.92
868.793	12.23
868.912	5.51
869.031	5.04
869.15	-2.66
869.27	10.18
869.389	6.49
869.508	2.43
869.627	2.93
869.746	2.72
869.865	11.76
869.984	0.64
870.103	8.73
870.222	-7.13
870.341	18.25
870.461	-0.36
870.58	2.14
870.699	6.87
870.818	0.24
870.937	4.33
871.056	5.03
871.175	12.95
871.294	17.53
871.413	7.72
871.532	3.74
871.651	13.42
871.77	12.21
871.889	7.91
872.008	5.95
872.127	3.52
872.246	-5.03
872.365	5.93
872.484	4.13
872.603	8.4
872.722	-3.35
872.841	3.92
872.96	2.44
873.079	0.94
873.198	0.74
873.316	-0.16
873.435	14.3
873.554	2.63
873.673	0.93
873.792	8.74
873.911	-1.16
874.03	-2.96
874.149	5.43
874.268	3.74
874.387	-6.67
874.505	3.83
874.624	-6.14
874.743	2.24
874.862	7.34
874.981	5.02
875.1	-1.36
875.218	0.24
875.337	-11.08
875.456	7.01
875.575	-8.05
875.694	-0.46
875.813	2.43
875.931	47.17
876.05	14.72
876.169	-5.04
876.288	22.39
876.406	5.21
876.525	-2.47
876.644	2.84
876.763	7.22
876.881	22.24
877	13.73
877.119	-6.38
877.238	-3.35
877.356	0.94
877.475	0.14
877.594	-3.86
877.712	11.6
877.831	4.21
877.95	-4.44
878.068	-1.76
878.187	2.44
878.306	8.99
878.424	-2.44
878.543	-2.65
878.662	3.53
878.78	0.34
878.899	-0.96
879.018	13.33
879.136	-1.56
879.255	3.31
879.374	10.28
879.492	-2.26
879.611	12.94
879.729	18.92
879.848	15.33
879.966	5.53
880.085	-0.56
880.204	0.83
880.322	17.76
880.441	-3.07
880.559	9.39
880.678	-0.66
880.796	7.15
880.915	-0.16
881.033	-4.36
881.152	1.03
881.27	4.51
881.389	6.24
881.507	4.13
881.626	9.66
881.744	8.39
881.863	-0.26
881.981	7.63
882.1	-17.41
882.218	2.62
882.337	-10.53
882.455	-4.85
882.574	4.13
882.692	-7.41
882.81	-9.26
882.929	-0.26
883.047	-8.84
883.166	-0.96
883.284	2.94
883.403	5.53
883.521	11.56
883.639	22.03
883.758	2.14
883.876	0.94
883.994	10.07
884.113	5.78
884.231	13.65
884.349	1.74
884.468	13.45
884.586	1.72
884.705	6.94
884.823	19.77
884.941	10.2
885.059	9.04
885.178	11.07
885.296	1.13
885.414	5.29
885.533	2.44
885.651	-3.75
885.769	-9.86
885.887	4.7
886.006	6.61
886.124	-8.45
886.242	4.33
886.36	14.71
886.479	-3.24
886.597	7.53
886.715	6.14
886.833	4.61
886.952	4.42
887.07	-7.05
887.188	16.03
887.306	-2.34
887.424	-0.86
887.543	8.93
887.661	-5.25
887.779	8.78
887.897	8.66
888.015	-0.96
888.133	7.02
888.251	7.2
888.37	-2.95
888.488	-3.37
888.606	-8.67
888.724	8
888.842	2.52
888.96	8.12
889.078	1.34
889.196	-5.11
889.314	2.62
889.433	8.64
889.551	-1.06
889.669	-0.36
889.787	-0.76
889.905	1.93
890.023	3.93
890.141	-4.34
890.259	16.61
890.377	-1.66
890.495	7.91
890.613	8.36
890.731	3.21
890.849	9.13
890.967	10.13
891.085	17.96
891.203	3.01
891.321	0.54
891.439	12.43
891.557	5.28
891.675	-7.01
891.793	2.04
891.911	5.62
892.029	3.13
892.147	0.94
892.265	-6.16
892.383	8.05
892.5	-4.72
892.618	6.1
892.736	-3.96
892.854	0.64
892.972	3.6
893.09	12.01
893.208	5.53
893.326	-5.27
893.444	-0.76
893.561	1.44
893.679	0.54
893.797	3.84
893.915	1.73
894.033	-8.15
894.151	7.95
894.268	0.74
894.386	-0.66
894.504	-1.55
894.622	4.33
894.74	0.04
894.857	2.03
894.975	14.08
895.093	-4.85
895.211	-5.57
895.329	11.09
895.446	0.44
895.564	-3.35
895.682	-1.56
895.8	-3.46
895.917	6.69
896.035	11.85
896.153	14.98
896.271	16.53
896.388	1.93
896.506	2.74
896.624	-3.06
896.741	8.61
896.859	-2.93
896.977	5.75
897.094	0.24
897.212	3.42
897.33	-9.31
897.447	-1.66
897.565	3.33
897.683	-15.02
897.8	0.54
897.918	11.05
898.036	-9.46
898.153	5.22
898.271	7.24
898.388	11.13
898.506	1.54
898.624	-20.2
898.741	-2.56
898.859	10.23
898.976	9.01
899.094	2.34
899.211	-2.56
899.329	-2.86
899.447	7.13
899.564	-0.76
899.682	-8.35
899.799	5.15
899.917	8.8
900.034	-9.04
900.152	1.53
900.269	-3.35
900.387	-2.96
900.504	2.41
900.622	-1.25
900.739	6.62
900.857	-2.96
900.974	-1.56
901.092	-6.34
901.209	-11.19
901.326	7.11
901.444	1.23
901.561	0.54
901.679	4.13
901.796	-4.76
901.914	-6.91
902.031	12.4
902.148	14.55
902.266	2.43
902.383	-2.54
902.501	1.24
902.618	-2.66
902.735	-8.56
902.853	-2.56
902.97	-9.23
903.087	-1.16
903.205	4.44
903.322	3.11
903.439	1.73
903.557	0.84
903.674	12.25
903.791	11.26
903.909	-2.65
904.026	-1.56
904.143	0.14
904.261	0.93
904.378	-8.4
904.495	1.94
904.612	-7.47
904.73	-4.45
904.847	-1.35
904.964	-0.46
905.081	-8.64
905.199	1.03
905.316	-5.52
905.433	-0.16
905.55	-6.15
905.668	9.4
905.785	4.02
905.902	-2.75
906.019	9.94
906.136	1.03
906.254	1.43
906.371	5.14
906.488	16.3
906.605	5.11
906.722	6.59
906.839	-1.26
906.957	3.44
907.074	7.64
907.191	8.85
907.308	10.92
907.425	8.53
907.542	2.83
907.659	3.31
907.776	0.74
907.893	-2.25
908.011	-4.03
908.128	2.43
908.245	-4.16
908.362	1.64
908.479	4.52
908.596	8.61
908.713	17.54
908.83	-3.46
908.947	3.21
909.064	7.14
909.181	14.56
909.298	4.84
909.415	-5.84
909.532	12.55
909.649	7.93
909.766	13.63
909.883	1.13
910	12.35
910.117	-3.86
910.234	8.29
910.351	-2.35
910.468	9.22
910.585	1.24
910.702	-0.36
910.819	2.62
910.936	-0.26
911.053	1.83
911.17	7.46
911.287	6.34
911.403	4.52
911.52	1.04
911.637	22.67
911.754	33.1
911.871	109.93
911.988	616.92
912.105	1385.74
912.222	585.56
912.338	314.76
912.455	219.73
912.572	183.79
912.689	115.59
912.806	66.48
912.923	26.31
913.039	26.46
913.156	8.72
913.273	1.93
913.39	15.48
913.507	4.23
913.623	-4.44
913.74	2.52
913.857	-2.06
913.974	-5.45
914.091	-0.56
914.207	-0.16
914.324	-8.94
914.441	2.24
914.558	-1.15
914.674	9.31
914.791	9.75
914.908	3.93
915.024	-3.14
915.141	1.83
915.258	13.16
915.375	9.24
915.491	11.99
915.608	-8.8
915.725	2.54
915.841	-1.36
915.958	2.81
916.075	3.21
916.191	17.96
916.308	8.12
916.425	6.5
916.541	-0.76
916.658	6.52
916.774	6.44
916.891	6.82
917.008	6.7
917.124	0.64
917.241	4.25
917.357	8.31
917.474	-0.76
917.591	2.64
917.707	-1.76
917.824	-2.24
917.94	7.21
918.057	9.83
918.173	-3.16
918.29	-5.65
918.406	-1.55
918.523	-0.86
918.639	1.04
918.756	17.43
918.872	4.02
918.989	5.35
919.105	7.31
919.222	34.32
919.338	25.8
919.455	13.83
919.571	10.24
919.688	10.6
919.804	-2.66
919.921	14.61
920.037	5.42
920.154	0.93
920.27	4.12
920.386	8.9
920.503	2.34
920.619	1.04
920.736	1.92
920.852	-2.06
920.968	2.74
921.085	-9.48
921.201	-1.65
921.318	-1.36
921.434	12.63
921.55	6.92
921.667	9.77
921.783	4.64
921.899	12.21
922.016	31.64
922.132	151.15
922.248	311.18
922.365	149.76
922.481	78.52
922.597	51.77
922.714	37.32
922.83	41.24
922.946	22.31
923.062	15.19
923.179	12.76
923.295	16.62
923.411	10.9
923.527	12.97
923.644	1.24
923.76	8.33
923.876	-0.36
923.992	8.21
924.109	6.63
924.225	6.14
924.341	2.63
924.457	8.23
924.573	8.65
924.69	9.33
924.806	0.04
924.922	0.34
925.038	-6.26
925.154	1.33
925.27	-0.46
925.387	-0.66
925.503	1.44
925.619	1.54
925.735	5.82
925.851	2.53
925.967	6.75
926.083	8.44
926.199	-1.75
926.316	6.1
926.432	1.04
926.548	-2.46
926.664	3.62
926.78	4.99
926.896	2.84
927.012	5.05
927.128	-1.86
927.244	15.97
927.36	4.63
927.476	6.12
927.592	-4.76
927.708	4.01
927.824	2.04
927.94	1.53
928.056	-14.86
928.172	-2.05
928.288	0.64
928.404	-0.96
928.52	3.34
928.636	8.12
928.752	5.93
928.868	13.64
928.984	7.7
929.1	3.92
929.216	6.74
929.332	3.43
929.448	-8.61
929.564	12.54
929.68	3.43
929.796	3.43
929.911	2.03
930.027	-2.06
930.143	11.74
930.259	-8.25
930.375	-6.75
930.491	-3.24
930.607	-2.46
930.723	5.33
930.838	4.7
930.954	4.23
931.07	20.33
931.186	-0.16
931.302	6.9
931.418	-1.75
931.533	-1.56
931.649	-0.66
931.765	5.31
931.881	-2.55
931.997	7.63
932.112	-37.46
932.228	-10.6
932.344	-19.98
932.46	-7.16
932.576	-9.36
932.691	1.83
932.807	12.01
932.923	-3.35
933.038	4.63
933.154	7.03
933.27	-8.85
933.386	1.24
933.501	0.04
933.617	-5.07
933.733	16.12
933.848	0.24
933.964	4.62
934.08	-0.56
934.195	9.16
934.311	5.95
934.427	-0.06
934.542	14.6
934.658	1.23
934.774	6.13
934.889	5.03
935.005	7.32
935.121	13.78
935.236	21.38
935.352	17.13
935.467	9.92
935.583	20.09
935.699	3.93
935.814	1.74
935.93	5.6
936.045	-7.23
936.161	9.11
936.276	-0.86
936.392	2.22
936.507	12.47
936.623	2.13
936.739	-5.06
936.854	-0.16
936.97	2.82
937.085	6.01
937.201	-0.16
937.316	-0.66
937.432	3.22
937.547	15.72
937.663	-0.36
937.778	-0.36
937.893	-5.33
938.009	-1.96
938.124	6.13
938.24	1.13
938.355	-0.76
938.471	3.03
938.586	5.12
938.702	10.29
938.817	7.03
938.932	10.41
939.048	12.21
939.163	-2.65
939.279	5.2
939.394	-4.97
939.509	0.14
939.625	-7.55
939.74	1.94
939.855	-8.55
939.971	-35.16
940.086	7.39
940.201	-1.95
940.317	-7.04
940.432	2.43
940.547	5.93
940.663	10.18
940.778	-4.97
940.893	6.84
941.009	-1.95
941.124	0.14
941.239	3.13
941.355	10.6
941.47	6
941.585	10.67
941.7	3.34
941.816	12.04
941.931	-7.01
942.046	-8.43
942.161	12.74
942.276	6.52
942.392	5
942.507	-7.82
942.622	44.15
942.737	1.14
942.852	3.92
942.968	-8.32
943.083	3.85
943.198	0.54
943.313	-2.25
943.428	0.93
943.544	-6.95
943.659	-1.56
943.774	4.34
943.889	5.84
944.004	-6.36
944.119	-3.25
944.234	5.99
944.349	-1.66
944.465	3.13
944.58	0.84
944.695	3.31
944.81	2.13
944.925	8.32
945.04	-3.66
945.155	1.13
945.27	-5.9
945.385	-4.76
945.5	18.16
945.615	-1.85
945.73	2.43
945.845	7.04
945.96	16.06
946.075	1.13
946.19	0.64
946.305	9.01
946.42	4.23
946.535	10.59
946.65	8.48
946.765	3.04
946.88	3.24
946.995	12.38
947.11	5.23
947.225	4.62
947.34	-0.56
947.455	4.33
947.57	-4.26
947.685	8.71
947.8	11.39
947.915	-1.65
948.03	0.73
948.144	-0.86
948.259	5.33
948.374	7.29
948.489	8.08
948.604	3.43
948.719	11.62
948.834	4.73
948.949	16.33
949.063	-4.16
949.178	-3.66
949.293	-8.7
949.408	0.34
949.523	2.53
949.638	8.62
949.752	1.93
949.867	2.72
949.982	-11.57
950.097	1.83
950.212	-0.86
950.326	5.3
950.441	3.64
950.556	-12.96
950.671	-1.85
950.785	9.1
950.9	-8.64
951.015	-8.97
951.13	15.14
951.244	-0.86
951.359	4.73
951.474	1.34
951.588	7.59
951.703	5.02
951.818	1.53
951.932	0.04
952.047	0.83
952.162	1.73
952.277	0.54
952.391	-3.75
952.506	-2.95
952.62	-0.76
952.735	0.34
952.85	-3.36
952.964	18.87
953.079	5.74
953.194	2.04
953.308	2.73
953.423	-1.75
953.537	10.11
953.652	2.24
953.767	13.14
953.881	10.32
953.996	2.03
954.11	3.44
954.225	0.14
954.339	3.93
954.454	5.09
954.569	2.54
954.683	7.13
954.798	6.51
954.912	6.42
955.027	-11.36
955.141	-3.76
955.256	-2.34
955.37	-7.83
955.485	0.04
955.599	-1.56
955.714	-1.16
955.828	-4.04
955.943	-1.46
956.057	-3.56
956.171	3.23
956.286	5.12
956.4	4.83
956.515	-6.46
956.629	-5.74
956.744	1.23
956.858	-5.65
956.972	4.93
957.087	4.51
957.201	-5.05
957.316	-7.75
957.43	-4.74
957.544	7.21
957.659	1.94
957.773	1.54
957.887	4.64
958.002	1.73
958.116	4.63
958.23	-0.76
958.345	-1.86
958.459	0.63
958.573	1.43
958.688	-5.66
958.802	-4.14
958.916	-12.79
959.031	-4.63
959.145	3.74
959.259	1.34
959.373	5.63
959.488	-4.75
959.602	-6.15
959.716	1.94
959.831	-6.02
959.945	2.92
960.059	-9.24
960.173	-4.54
960.287	2.53
960.402	-3.85
960.516	-0.36
960.63	3.44
960.744	3.44
960.858	-5.53
960.973	4.73
961.087	-5.45
961.201	8.5
961.315	1.24
961.429	6.63
961.543	5.02
961.658	1.43
961.772	3.33
961.886	5.51
962	-0.66
962.114	5.12
962.228	3.12
962.342	-2.76
962.456	9.03
962.571	-10.23
962.685	2.62
962.799	0.54
962.913	10.25
963.027	-8.44
963.141	4.35
963.255	0.04
963.369	-6.94
963.483	1.04
963.597	1.23
963.711	-2.26
963.825	-5.66
963.939	5.4
964.053	-0.26
964.167	7.93
964.281	-2.46
964.395	9.91
964.509	4.04
964.623	5.52
964.737	1.34
964.851	6.52
964.965	2.43
965.079	5.33
965.193	8.03
965.307	27.52
965.421	84.64
965.535	170.47
965.649	104.91
965.762	69.23
965.876	55.81
965.99	38.91
966.104	39.38
966.218	29.19
966.332	38.16
966.446	31.25
966.56	27.56
966.674	15.41
966.787	11.18
966.901	21.56
967.015	1.44
967.129	2.13
967.243	6.03
967.357	9.41
967.47	5.72
967.584	-0.06
967.698	0.14
967.812	0.04
967.926	9.33
968.039	-5.82
968.153	9.26
968.267	4.43
968.381	-4.95
968.494	1.13
968.608	5.1
968.722	4.13
968.836	-1.06
968.949	16.29
969.063	5.02
969.177	0.74
969.291	-1.86
969.404	19.28
969.518	-0.95
969.632	0.34
969.745	6.22
969.859	0.94
969.973	1.33
970.086	-0.76
970.2	4.72
970.314	15.08
970.427	-5.03
970.541	5.34
970.655	8.24
970.768	7.32
970.882	2.23
970.996	3.53
971.109	-1.46
971.223	0.44
971.336	2.03
971.45	1.04
971.564	-7.64
971.677	7.82
971.791	4.93
971.904	-0.86
972.018	-0.76
972.131	-5.25
972.245	-4.34
972.358	10.23
972.472	-4.25
972.586	14.41
972.699	6.31
972.813	60.16
972.926	-3.76
973.04	-1.76
973.153	2.03
973.267	-6.94
973.38	5.04
973.493	-2.15
973.607	1.44
973.72	-3.67
973.834	25.74
973.947	9.89
974.061	10.62
974.174	-7.76
974.288	6.94
974.401	6.33
974.514	9.01
974.628	0.64
974.741	-4.65
974.855	-1.86
974.968	2.14
975.081	-0.26
975.195	-4.25
975.308	-2.17
975.422	1.13
975.535	3.72
975.648	-1.26
975.762	2.72
975.875	6.23
975.988	4.62
976.102	10.61
976.215	4.61
976.328	-7.7
976.442	-6.25
976.555	-8.37
976.668	1.62
976.781	-1.95
976.895	1.23
977.008	2.03
977.121	-1.06
977.235	-16.36
977.348	8.84
977.461	5.84
977.574	6.42
977.688	5.31
977.801	-3.15
977.914	11.3
978.027	3.93
978.14	15.91
978.254	20.02
978.367	14.86
978.48	17.9
978.593	4.53
978.706	13.58
978.82	-3.06
978.933	7.91
979.046	2.12
979.159	3.63
979.272	-0.16
979.385	9.18
979.498	6.43
979.612	-4.88
979.725	9.61
979.838	2.93
979.951	7.41
980.064	0.44
980.177	-0.86
980.29	6.7
980.403	5.62
980.516	11.83
980.629	6.14
980.743	6.51
980.856	-4.96
980.969	-1.96
981.082	-5.96
981.195	-3.05
981.308	-0.46
981.421	1.04
981.534	3.74
981.647	-3.26
981.76	-5.23
981.873	3.13
981.986	-0.26
982.099	8.82
982.212	6.11
982.325	-4.36
982.438	1.14
982.551	-1.06
982.664	3.13
982.777	-3.26
982.889	1.44
983.002	12.2
983.115	17.63
983.228	-7.53
983.341	2.13
983.454	1.33
983.567	10.24
983.68	-4.95
983.793	3.92
983.906	9.02
984.019	5.74
984.131	11
984.244	4.83
984.357	0.04
984.47	9.65
984.583	-1.26
984.696	6.03
984.808	5.22
984.921	-10.11
985.034	3.74
985.147	9.63
985.26	4.92
985.373	-1.95
985.485	9.31
985.598	3.43
985.711	-8.57
985.824	-1.56
985.936	6.15
986.049	1.03
986.162	6.22
986.275	-3.14
986.387	0.74
986.5	-2.26
986.613	-5.34
986.726	-1.45
986.838	2.33
986.951	3.93
987.064	9.7
987.176	2.03
987.289	3.44
987.402	1.14
987.514	5.21
987.627	7.91
987.74	3.84
987.852	8.51
987.965	8.01
988.078	12.48
988.19	10.53
988.303	13.12
988.416	-0.26
988.528	10.11
988.641	-1.86
988.753	1.34
988.866	10.39
988.979	-1.45
989.091	-3.15
989.204	0.64
989.316	-7.32
989.429	3.13
989.541	15.6
989.654	0.64
989.767	-0.96
989.879	3.93
989.992	12.31
990.104	-3.96
990.217	-3.65
990.329	2.43
990.442	9.66
990.554	1.94
990.667	5.51
990.779	-1.46
990.892	6.53
991.004	-2.05
991.117	3.73
991.229	2.43
991.342	8.93
991.454	-1.86
991.566	2.53
991.679	2.14
991.791	15.89
991.904	2.14
992.016	10.16
992.129	-0.16
992.241	2.93
992.353	-0.96
992.466	1.63
992.578	-1.35
992.691	-1.26
992.803	5.43
992.915	-0.26
993.028	-1.56
993.14	7.14
993.252	-1.66
993.365	9.61
993.477	8.24
993.589	8.53
993.702	1.34
993.814	-10.15
993.926	7.31
994.039	-3.26
994.151	-2.75
994.263	4.8
994.375	-0.46
994.488	-6.16
994.6	4.44
994.712	-4.43
994.824	-1.66
994.937	1.84
995.049	1.84
995.161	7.11
995.273	7
995.386	-1.86
995.498	-1.76
995.61	-3.94
995.722	-0.06
995.834	1.54
995.947	3.13
996.059	3.02
996.171	-6.76
996.283	2.44
996.395	10.13
996.507	-2.06
996.62	6.3
996.732	7.42
996.844	18.99
996.956	3.82
997.068	5.62
997.18	-3.75
997.292	-3.55
997.404	0.54
997.517	-0.86
997.629	-9.78
997.741	7.92
997.853	-7.85
997.965	12.47
998.077	-9.66
998.189	-9.65
998.301	8.39
998.413	2.63
998.525	6.52
998.637	-5.35
998.749	4.31
998.861	0.14
998.973	1.44
999.085	9.52
999.197	-2.65
999.309	8.51
999.421	-0.86
999.533	6.23
999.645	0.73
999.757	-3.66
999.869	-5.83
999.981	-1.76
1000.093	8.45
1000.205	3.42
1000.317	4.24
1000.429	0.84
1000.541	5.83
1000.653	-1.45
1000.765	9.53
1000.876	-1.56
1000.988	-0.26
1001.1	-2.36
1001.212	2.73
1001.324	0.94
1001.436	8.43
1001.548	6.21
1001.66	-5.36
1001.771	1.64
1001.883	5.51
1001.995	-9.74
1002.107	-7.17
1002.219	-1.76
1002.331	6.21
1002.442	6.74
1002.554	-0.56
1002.666	2.83
1002.778	5.82
1002.89	18.67
1003.001	-2.56
1003.113	-0.26
1003.225	2.24
1003.337	3.12
1003.448	0.44
1003.56	-0.86
1003.672	-0.76
1003.784	-4.04
1003.895	9.02
1004.007	6.34
1004.119	-4.94
1004.231	6.32
1004.342	-10.95
1004.454	-8.14
1004.566	-5.43
1004.677	4.72
1004.789	2.63
1004.901	8.32
1005.012	6
1005.124	5.89
1005.236	9.23
1005.347	-1.85
1005.459	-6.34
1005.571	8.05
1005.682	7.22
1005.794	7.03
1005.905	9.13
1006.017	4.42
1006.129	-6.95
1006.24	4.54
1006.352	-5.07
1006.463	-0.56
1006.575	3.43
1006.686	6.25
1006.798	3.52
1006.91	-1.56
1007.021	-8.04
1007.133	2.33
1007.244	1.63
1007.356	11.23
1007.467	3.83
1007.579	4.33
1007.69	-0.06
1007.802	-1.26
1007.913	2.43
1008.025	8.23
1008.136	14.49
1008.248	3.83
1008.359	12.91
1008.471	-1.26
1008.582	-7.72
1008.693	9.8
1008.805	14.62
1008.916	5.02
1009.028	-7.62
1009.139	-9.04
1009.251	-1.76
1009.362	5.32
1009.473	-8.14
1009.585	-0.96
1009.696	-6.67
1009.808	8.33
1009.919	5.22
1010.03	12.43
1010.142	-1.66
1010.253	-1.86
1010.364	5.12
1010.476	11.86
1010.587	11.92
1010.698	-2.36
1010.81	3.92
1010.921	5.23
1011.032	11.73
1011.144	5.22
1011.255	-2.85
1011.366	-2.56
1011.478	1.93
1011.589	4.73
1011.7	-0.66
1011.811	2.23
1011.923	6.43
1012.034	4.33
1012.145	1.73
1012.256	2.63
1012.368	4.42
1012.479	2.74
1012.59	1.93
1012.701	6.61
1012.812	-5.34
1012.924	-6.14
1013.035	-8.91
1013.146	-1.26
1013.257	2.43
1013.368	-4.26
1013.48	3.93
1013.591	12.56
1013.702	6.13
1013.813	-4.25
1013.924	-0.16
1014.035	-4.46
1014.146	-0.76
1014.257	-1.16
1014.369	-8.84
1014.48	2.33
1014.591	-3.45
1014.702	2.84
1014.813	-2.25
1014.924	0.04
1015.035	-0.46
1015.146	1.53
1015.257	4.35
1015.368	3.33
1015.479	-1.16
1015.59	6.92
1015.701	-10.93
1015.812	0.44
1015.924	1.64
1016.035	0.44
1016.146	-3.16
1016.257	-10.15
1016.368	7.53
1016.479	-3.85
1016.59	-2.46
1016.7	2.73
1016.811	-1.26
1016.922	7.4
1017.033	3.33
1017.144	-3.85
1017.255	5.94
1017.366	7.81
1017.477	-0.36
1017.588	7.52
1017.699	3.82
1017.81	18.37
1017.921	8.61
1018.032	9.43
1018.143	6.53
1018.253	4.81
1018.364	-2.05
1018.475	12.74
1018.586	-3.06
1018.697	-4.46
1018.808	-9.33
1018.919	5.62
1019.029	3.83
1019.14	3.44
1019.251	-4.75
1019.362	-5.04
1019.473	1.64
1019.584	5.53
1019.694	3.14
1019.805	2.53
1019.916	-9.87
1020.027	26.02
1020.137	-3.55
1020.248	5.19
1020.359	4.43
1020.47	-7.63
1020.581	-2.85
1020.691	-2.55
1020.802	2.13
1020.913	-2.16
1021.023	-1.36
1021.134	7
1021.245	3.32
1021.356	7.62
1021.466	-9.64
1021.577	11.09
1021.688	1.23
1021.798	8.32
1021.909	-6.93
1022.02	-6.62
1022.13	-1.66
1022.241	6.22
1022.352	-4.36
1022.462	-2.05
1022.573	4.13
1022.683	-1.36
1022.794	9.77
1022.905	-8.53
1023.015	8.31
1023.126	-6.56
1023.236	0.54
1023.347	-4.44
1023.458	-0.46
1023.568	2.93
1023.679	1.33
1023.789	3.33
1023.9	2.43
1024.01	3.42
1024.121	-3.15
1024.231	12.19
1024.342	5.03
1024.453	-5.45
1024.563	-6.24
1024.674	5.03
1024.784	-2.36
1024.895	5.62
1025.005	-2.55
1025.116	-0.36
1025.226	3.82
1025.336	12.24
1025.447	2.33
1025.557	-0.76
1025.668	2.63
1025.778	-12.37
1025.889	5.33
1025.999	5.71
1026.11	-1.26
1026.22	-5.25
1026.33	1.13
1026.441	8.39
1026.551	11.12
1026.662	10.05
1026.772	-2.45
1026.882	-2.55
1026.993	5.03
1027.103	0.04
1027.213	1.74
1027.324	2.93
1027.434	-7.36
1027.544	1.34
1027.655	-4.85
1027.765	-10.67
1027.875	9
1027.986	-10.55
1028.096	3.52
1028.206	5.91
1028.317	-4.77
1028.427	1.13
1028.537	1.73
1028.647	2.83
1028.758	-11.3
1028.868	19.32
1028.978	-2.26
1029.088	-1.06
1029.199	3.44
1029.309	0.84
1029.419	12.64
1029.529	15.04
1029.639	4.94
1029.75	-4.17
1029.86	15.83
1029.97	7.1
1030.08	1.44
1030.19	-2.86
1030.301	6.03
1030.411	-7.23
1030.521	1.14
1030.631	10.11
1030.741	11.79
1030.851	3.73
1030.961	5.42
1031.072	11.74
1031.182	5.31
1031.292	-13.91
1031.402	-3.45
1031.512	-11.92
1031.622	6.23
1031.732	0.24
1031.842	4.33
1031.952	4.65
1032.062	5.02
1032.172	8.91
1032.282	10.4
1032.393	-3.96
1032.503	6.42
1032.613	2.82
1032.723	5.23
1032.833	6.01
1032.943	2.04
1033.053	5.52
1033.163	11.26
1033.273	3.23
1033.383	12.49
1033.493	-0.76
1033.603	-5.96
1033.713	8.12
1033.823	-8.05
1033.932	-2.24
1034.042	2.03
1034.152	-2.45
1034.262	-2.05
1034.372	5.92
1034.482	-1.56
1034.592	4.92
1034.702	6.42
1034.812	-6.53
1034.922	3.23
1035.032	7.33
1035.141	-5.24
1035.251	6.51
1035.361	7.05
1035.471	11.13
1035.581	3.44
1035.691	14.62
1035.801	10.01
1035.91	6.72
1036.02	-1.65
1036.13	2.72
1036.24	3.73
1036.35	-8.95
1036.46	-5.54
1036.569	5.51
1036.679	4.44
1036.789	3.33
1036.899	3.04
1037.008	-2.26
1037.118	-7.85
1037.228	-1.76
1037.338	5.93
1037.447	8.6
1037.557	-6.46
1037.667	-9.78
1037.777	13.05
1037.886	1.54
1037.996	-4.86
1038.106	8.84
1038.215	-6.84
1038.325	-3.54
1038.435	2.23
1038.544	12.25
1038.654	-0.76
1038.764	0.44
